F3_t,F3_a,Fz_t,Fz_a,F4_t,F4_a,C3_t,C3_a,Cz_t,Cz_a,C4_t,C4_a,P3_t,P3_a,Pz_t,Pz_a,P4_t,P4_a,F3_P2,Fz_P2,F4_P2,C3_P2,Cz_P2,C4_P2,P3_P2,Pz_P2,P4_P2,F3_N2,Fz_N2,F4_N2,C3_N2,Cz_N2,C4_N2,P3_N2,Pz_N2,P4_N2,label
194.8771414620778,101.43990238235502,320.43840050266937,167.28760178442215,365.0295771784743,184.08412041175652,308.4533485414341,132.32768588001764,396.34418757297675,152.368600602247,465.33446771678433,182.4707331683523,348.2818997057496,153.8953721925158,389.9579291593886,134.57742357289683,328.0851598144853,125.65140811393728,16.4671802520752,14.554115295410202,13.888760566711401,11.6122207641602,14.6140794754028,13.884732246398901,10.3643503189087,14.651804924011198,14.3748188018799,-8.43111610412598,-7.532325744628909,-7.13132953643799,-4.92035722732544,-9.65936279296875,-9.0573148727417,-3.09720730781555,-5.88205194473267,-5.05522298812866,0
157.91250251936034,110.4838909290949,212.5486841673029,142.23701638357622,127.27612379058334,91.33326218528498,253.11184964020657,157.16250867911847,228.54928289923575,140.4838331209211,205.71008475462105,135.45891503968622,180.40017800149207,158.60976970625933,117.45522076193814,102.20596393323456,163.44038823420303,180.04955883027404,7.43337488174438,7.6884822845459,9.82168006896973,9.24792194366455,6.3426570892334,7.77837181091309,5.77377510070801,5.28546714782715,6.62055730819702,-13.113245010376,-11.648229598999,-14.2022256851196,-8.93491172790527,-10.1149435043335,-10.8528718948364,-3.2771339416503897,-5.61931228637695,-11.4841356277466,0
144.15203694313394,103.94930642261542,163.53132219307963,101.7000175874184,177.4056674360252,108.80554560945853,161.03339623351977,124.95269118124098,183.8468915712535,144.2113144018537,207.83570327690157,175.6794296292827,162.89184757694315,122.50089103331165,123.88810725341526,104.88052061013332,161.20858839682484,103.9895516200116,16.2484493255615,19.058614730835,20.7919921875,12.880500793457,12.2719173431396,11.9040985107422,11.0984859466553,9.33975028991699,4.76076459884644,-15.124318122863802,-16.9091873168945,-17.3589267730713,-19.0575828552246,-15.8064336776733,-15.645819664001499,-15.2455453872681,-15.3165264129639,-15.832142829895,0
229.65995686230116,199.95373703703464,161.45548426058247,159.49151103641648,128.8453836131702,144.23671104037678,255.24393073199226,213.75130149495715,190.24391334660277,205.54037303861924,140.76259889703263,183.6728358162187,145.6979841377886,191.20132414347725,166.2792108824502,221.91919234788685,160.0353151383808,158.607324280097,11.0502939224243,10.0170011520386,8.64105606079102,14.7119827270508,10.4748516082764,11.12220287323,12.0268745422363,8.39800834655762,11.4941177368164,-19.5470542907715,-22.0342388153076,-16.7713222503662,-15.02610206604,-16.3220100402832,-11.5139980316162,-11.041787147522,-11.5264511108398,-10.0746669769287,1
80.5784128684699,77.84208678906418,105.67319603546193,89.7910689765799,100.62742449601463,78.22010894779416,94.74044432765797,111.3610239604379,108.85413589308318,121.68944919675421,124.02798909804542,119.94150792316955,119.9224984369386,150.52964017173312,106.73908189783576,122.62071311199121,66.7737807981156,59.366972659170706,12.7833595275879,10.1272411346436,8.75417232513428,15.3511085510254,14.343994140625,11.6223077774048,14.208557128906198,14.6406288146973,12.0003290176392,-7.446067810058591,-5.48048305511475,-4.91969966888428,-9.97118949890137,-7.4336471557617205,-11.4618396759033,-8.80397033691406,-7.31497097015381,-6.1494255065918,1
321.99000608342067,198.10531370702256,254.4602949674574,140.00531128446053,230.75608894338345,135.93150185793374,301.1347172298806,212.81544451347057,326.5954390445679,195.59596836343826,244.64773874806173,158.74801326781952,194.1415389715694,155.7689721171954,219.51335487221218,187.2374734399516,78.03029574835384,56.290897049875504,9.52725028991699,12.1273164749146,12.4220943450928,8.01433849334717,7.05551433563232,5.48413515090942,10.3532829284668,8.52753162384033,10.0651378631592,-20.8251800537109,-20.3119697570801,-15.970085144043,-14.756004333496099,-15.719995498657202,-13.488055229187001,-13.949635505676302,-14.643386840820302,-11.7782964706421,0
157.53244391154738,129.0541133642121,232.15614206472247,183.0379146446661,295.67303090731366,227.18338097000344,224.76282450205886,161.5137976015685,266.0882581299568,201.56918951960762,241.00143062964108,202.61952296051865,234.3841106544417,186.61839684919767,195.98880957822703,181.45335072506725,101.51307196508621,102.51188765553978,7.218335151672361,10.8218822479248,11.6617279052734,9.16381645202637,12.5200023651123,14.384256362915,9.743577003479,13.959422111511198,10.6330709457397,-11.4718685150146,-9.27601432800293,-12.4817085266113,-6.96133279800415,-8.45245933532715,-10.1206569671631,-7.02261209487915,-8.72589874267578,-6.96443557739258,1
175.941255438343,144.55095968083572,188.20396405439595,165.92931962133778,171.63807615867196,157.62882995933649,171.58871990283245,120.4231733396814,203.3313928835563,148.40452776745892,141.913874354066,125.85736991221981,117.39444101363131,94.91261346393382,122.83573627226323,97.65947128375154,123.71725169676294,101.91912038214763,16.4400730133057,19.1016731262207,19.5206565856934,12.6384582519531,13.0076942443848,14.9705085754395,8.57521533966064,10.0495185852051,10.8035049438477,-7.7792434692382795,-9.73575878143311,-14.2448406219482,-5.45659637451172,-8.75293159484863,-11.8233299255371,-3.6495916843414298,-6.74429321289062,-8.68638515472412,1
187.91719174751128,216.841496464154,231.4655309555798,251.56899337159314,182.31478308043563,205.90290257378336,134.6343104624781,191.4398207247587,153.22997696385238,265.40508100673014,151.5102340388764,269.65111621438996,184.08464579995186,247.52005353975073,102.90754437594998,268.42362420544873,101.99017270368432,279.55410756570416,11.4550933837891,12.5287179946899,12.3779973983765,10.4656629562378,9.42168426513672,9.87795257568359,7.07320976257324,6.726810932159421,6.44472980499268,-6.46921253204346,-8.3084716796875,-8.26338386535645,-9.65611743927002,-14.204372406005898,-12.857716560363802,-4.25904941558838,-7.7752857208252,-8.8207836151123,0
252.35491745294135,138.00752865141493,309.5658523343316,160.85681878514615,232.03579791987775,130.9269561526441,124.5371090087272,71.3142704192384,158.4686229495308,96.93234335880877,139.53103009194277,100.88736373922171,111.8226711123425,71.06480179993342,127.98751701851556,89.76325200149034,100.27307849765744,109.92704449974394,8.22219371795654,9.28863334655762,8.97517967224121,10.6086111068726,9.68338298797607,11.0221242904663,12.376181602478,10.0544004440308,10.3501958847046,-9.61563110351562,-16.6552906036377,-17.5935287475586,-13.3568305969238,-17.52783203125,-15.9318408966064,-9.49092769622803,-15.324909210205101,-13.985751152038599,1
121.62041092328936,102.97267890983085,118.03138781930066,103.83181119243136,92.57014756507472,105.60462168451052,140.6271256717052,125.01201481071392,156.322982501904,158.47451675919228,117.26191912463662,123.38739767667558,140.92745330160412,139.0112187828426,182.84651198189076,180.8727063875359,98.16753350389494,90.0601145350432,19.4607315063477,18.5484199523926,18.4642810821533,16.8733520507812,16.9750595092773,18.1581249237061,16.1939582824707,16.1942844390869,18.6194534301758,-14.187727928161598,-14.1676177978516,-13.3334941864014,-19.1916408538818,-16.6245079040527,-11.6670475006104,-15.149556159973098,-15.8208026885986,-9.6104621887207,1
252.50367390465846,68.44233468129842,289.77351404327123,87.62367091106763,258.21635062447217,99.95159431147262,255.87708839179902,58.61076423456379,389.2539582272246,86.36925794751933,254.90232751102093,86.27965150693058,256.0032610786251,101.27025805074597,273.57611177687494,98.97436516962709,142.93505454103843,99.3346707000002,16.7617797851562,18.9035949707031,21.9920063018799,13.8065204620361,18.2243061065674,19.3123168945312,6.91112947463989,10.7309999465942,8.12926578521729,-14.591971397399899,-13.560575485229498,-11.5223407745361,-10.4221782684326,-10.8074254989624,-9.23852252960205,-3.0181245803833,-3.6676502227783194,-1.7097387313842802,1
82.17619935429892,77.20480511871416,81.61455613556299,75.20111842230538,82.74598736451402,75.17495538888343,78.23160745824221,84.41802642938428,79.44476151838967,84.03076059655997,72.13015110848275,70.05706363203038,101.89942341258117,85.32168807988015,71.95529618057657,72.37034355330277,84.0879984284265,71.85721083852631,16.0432834625244,14.575756072998,13.212604522705101,10.2115983963013,12.5889568328857,8.45363903045654,7.37001752853394,8.11013221740723,3.9805419445037797,-20.3456840515137,-22.2293548583984,-19.1328258514404,-15.0500164031982,-14.2354106903076,-14.2449417114258,-9.03500366210938,-9.19952964782715,-7.7631525993347195,0
377.4255520786129,226.45236656975842,371.53907309030836,220.17219978806241,251.22200601972037,150.69327933405495,284.8580042274481,216.65584653677337,174.79667272036107,124.23936101357255,255.0549176114612,173.89169698306034,154.02653751469452,99.88880140665172,136.31442469561887,110.92971491652035,127.50966382991906,94.50438078401116,7.83420610427856,7.69212484359741,10.717866897583,8.56937980651855,10.0036592483521,10.0389251708984,7.9531974792480495,9.88779067993164,8.9709644317627,-18.0074844360352,-13.179594039916998,-13.7091083526611,-15.440092086791998,-13.6709842681885,-15.509713172912601,-5.08950424194336,-8.11008548736572,-8.34187507629395,0
115.00064252110221,218.61572788445656,142.29542451446724,244.33711671489868,123.23829487884159,263.0948185866513,132.8308948941055,205.40701019570355,203.40695392527877,257.1996772480983,228.1263877386031,347.15455905071775,199.73993670333124,189.67695044175815,282.4184820854528,282.0937872611279,257.2985234149074,283.1642818529864,9.40301132202148,10.7765960693359,9.91171741485596,4.47025585174561,7.77224445343018,7.29943370819092,5.39815855026245,5.13246011734009,4.71081638336182,-8.50778198242188,-9.9961051940918,-9.70788955688477,-0.170354843139648,-2.68794536590576,-1.69140434265137,-1.44242668151855,-4.11502933502197,-4.25922298431396,0
