F3_t,F3_a,Fz_t,Fz_a,F4_t,F4_a,C3_t,C3_a,Cz_t,Cz_a,C4_t,C4_a,P3_t,P3_a,Pz_t,Pz_a,P4_t,P4_a,F3_P2,Fz_P2,F4_P2,C3_P2,Cz_P2,C4_P2,P3_P2,Pz_P2,P4_P2,F3_N2,Fz_N2,F4_N2,C3_N2,Cz_N2,C4_N2,P3_N2,Pz_N2,P4_N2,label
145.2401841336791,137.0207538301684,118.1207085284786,94.52646643283845,151.53436774112905,140.540858545346,257.85496551030366,154.2292442749885,315.20808051695826,152.7139112519061,213.1575876550927,135.73508336203017,292.5797421955544,178.93169312969366,229.27216726552368,190.67636809898244,209.5354847551281,150.45681886278106,15.7969760894775,9.21807193756104,9.47850036621094,9.17143154144287,10.1058101654053,7.799366950988771,9.8024320602417,7.063381195068361,12.7222890853882,-18.1103286743164,-16.4978103637695,-14.996587753295902,-12.8020057678223,-15.573669433593802,-14.6465854644775,-13.4642400741577,-17.4950370788574,-10.6758146286011,0
102.2134047344934,74.52229911346326,239.9840701125485,223.71008136031045,289.6153339719259,257.7775032635628,221.0473272193288,121.2743040668001,294.4213328022216,153.75852613629854,255.477633675754,152.4951838125113,209.00422690973036,89.13705896832971,223.66731737664955,125.35575710642404,180.7391995576513,138.7810826499563,11.0844507217407,18.2551460266113,12.0766534805298,12.3704528808594,13.169412612915,11.981969833374,13.2906017303467,11.0385971069336,8.65401077270508,-12.0778465270996,-10.3004474639893,-5.79145002365112,-14.8342981338501,-9.088698387146,-5.14472770690918,-6.50611209869385,-4.16452503204346,-2.14462184906006,0
53.90175440461219,97.80997737165144,88.63811327862693,126.21533158786458,92.56425213236857,127.51125972653485,100.12375483144326,145.0514523294528,88.06254528354556,149.481478842392,99.7677883237908,143.7552942410764,75.47835069344079,158.982010000589,71.91641669582371,162.95589088908017,111.4568303681803,193.3204766018495,17.9200038909912,12.2503623962402,12.3294725418091,7.20640707015991,9.7548131942749,17.4185733795166,4.21267986297607,6.21688175201416,12.2521028518677,-15.665389060974098,-15.938362121582,-14.7111186981201,-11.2661504745483,-8.39560508728027,-2.87045288085938,-4.5221905708313,-7.908346176147459,-3.10620260238647,0
91.07774681713464,73.15220799599648,237.06890522332128,196.95461884187043,160.91071434372998,149.98128858906784,257.6021913828953,201.183039633932,182.0360459300607,96.8290180132032,234.8986284698087,142.8041986302222,144.72697326952564,192.3052768776249,240.50504432475827,314.2411435299361,151.49590430820888,223.2692516983695,19.8909187316895,21.5962600708008,16.7914695739746,13.21755027771,12.1661462783813,16.381778717041,11.7344408035278,10.9210653305054,13.7360420227051,-18.7471256256104,-18.7998676300049,-6.05947971343994,-18.4624538421631,-12.3541555404663,-6.45603036880493,-4.90686225891113,-5.61553478240967,-10.1864900588989,0
75.04728650694967,127.33297664537442,132.58374437693465,266.6152915306188,188.53945958654796,286.93587631224574,110.95418312344482,144.16343628281214,210.76858497654624,223.83168224026176,265.79675405614046,250.87256095806316,201.5587747189871,226.24613681767696,217.9810231050161,250.2113293442948,197.8511055087232,194.33928728446327,11.586332321167,7.224635601043699,11.3239078521729,14.4893312454224,9.85139179229736,8.72054386138916,17.7343673706055,15.4950428009033,9.24964237213135,-17.5778903961182,-7.08646678924561,-7.06076526641846,-5.99437808990479,-9.3913745880127,-9.25730800628662,-3.84822869300842,-8.83560943603516,-12.2990789413452,0
118.09165678765724,70.25499348025006,195.2449995282264,108.83321647955243,160.39235507345518,73.31945421479897,229.66362929030944,237.8273931757522,280.4849506326562,99.17091997040175,225.0290286250905,72.67073704607077,255.41004873829615,143.61130599143834,291.98715672181345,97.5702680340106,198.2633613638952,81.60404812128239,18.2296447753906,10.404257774353,9.40985107421875,10.2628707885742,10.0700283050537,7.898392200469969,6.7541880607605,9.37019634246826,11.2203464508057,-3.62539577484131,-4.66843700408936,-3.79937934875488,-4.12746000289917,-3.3665943145752,-4.83490180969238,-5.42260408401489,-2.78864526748657,-3.8654282093048105,0
219.39033769968495,199.840129599713,216.7239007094805,237.89178690794512,186.77874547909,200.70439847136583,205.11436826115565,179.15174045781893,165.06962886378517,178.0019722792113,189.58327833572497,224.99073168027223,161.37290649310478,249.29758537695017,95.06392752481324,255.84664689399293,146.57158753070397,336.084165885474,9.11783504486084,12.4810638427734,11.1706686019897,8.82198047637939,9.91274738311768,8.52570247650146,7.40040016174316,3.4738588333129896,5.02905797958374,-17.4446334838867,-14.7743072509766,-14.6857566833496,-12.926853179931602,-15.9629564285278,-20.3045558929443,-11.3563470840454,-15.4806432723999,-18.425931930542,1
225.3829836421121,177.14818556848846,156.32779976396785,157.3254766106748,180.76372297673137,197.89584215624745,151.58230292292927,153.9257545475445,134.63259771774696,165.9256457207738,179.16955823897655,207.8856314633993,131.6415449365053,221.79965165735345,143.2904980801271,318.8330397407075,126.30462443686784,270.9639970953919,12.8645610809326,8.80319786071777,8.99992752075195,12.7012815475464,11.0463619232178,11.4680433273315,13.4487609863281,13.1499061584473,9.96374607086182,-11.4516839981079,-14.4339714050293,-16.7883071899414,-11.5382699966431,-14.6859798431396,-13.8236131668091,-14.931142807006802,-21.8279151916504,-19.4051399230957,1
108.29801238543293,169.90032744993186,154.7521943127152,216.46977478513557,155.4377880843202,185.56638540624456,222.9087164053702,171.4991118694021,306.3227444172203,169.21576985479993,240.30027635893984,162.85298856759852,267.6225580630388,155.32975401224567,164.57190806331744,118.26730845344126,175.70564649504914,162.83806328915128,15.291978836059602,12.2180156707764,16.9266452789307,7.63963937759399,10.5479116439819,13.506664276123,9.27805328369141,12.2441139221191,9.01642513275146,-13.9943370819092,-16.4146480560303,-17.8778533935547,-18.0264415740967,-19.186450958252,-15.473276138305698,-11.6283369064331,-12.9078893661499,-10.9183721542358,0
207.23544706910684,216.2407303143181,316.29318491304434,348.6119761881456,251.67446305790105,283.6383144593306,221.68695478943133,231.27071965487187,314.4131929949252,288.9949266172167,235.02312757579816,313.1020614938713,191.60178304666763,214.30255895292396,213.9386023316503,260.8383597943392,245.16117041968,276.89897363785286,15.688426017761198,9.76728057861328,13.4663238525391,11.201979637146,18.4370536804199,25.5498237609863,10.7709922790527,18.4632625579834,24.2592582702637,-11.125560760498,-7.98404216766357,-11.6851501464844,-6.61081790924072,-16.5133514404297,-9.57028579711914,-1.80233216285706,-8.4666633605957,-4.72750854492188,0
169.89600161072426,200.06936759152,178.9939664031613,196.7006370060956,166.14966598817662,208.04553942375512,145.22343741001637,200.84796496849197,213.35566031510987,196.94535287154832,183.5935722359356,167.70303400956857,127.2176996550557,185.4499322049063,124.52802231753378,136.7698429198922,110.52940228191142,110.2385104019944,9.383225440979,5.31183958053589,5.70888900756836,3.9338731765747097,7.936049461364749,12.7834358215332,11.5781555175781,16.8047542572021,13.5478219985962,-18.9188060760498,-18.7233581542969,-15.748914718627898,-15.7446985244751,-28.8103694915771,-17.7056865692139,-11.3867473602295,-18.425121307373,-18.054651260376,0
92.52909857380288,186.0605250335682,138.99743399168594,284.4148913493799,106.67872039373206,253.26022836399375,135.82657019960598,233.7585366427863,158.68877387877288,224.17309020376752,134.56808225163775,182.3339086447049,121.49225818256352,198.34207348848784,125.30833363329587,256.06438224222154,171.72850750826117,306.54842779818847,22.5342559814453,15.220568656921396,14.762124061584498,18.4340496063232,13.4415950775146,16.1122226715088,8.83027076721191,13.5649337768555,16.8456325531006,-20.7746677398682,-11.8179702758789,-8.44521331787109,-9.59031105041504,-7.58780574798584,-9.07855033874512,-6.723171234130861,-2.87581276893616,-6.4356613159179705,1
144.75039380364942,109.99334994731124,255.97219832794212,177.0715171371588,236.34843544385663,157.57742237136583,222.600493230092,157.68001631136366,272.6785092547041,181.8632762847164,201.3140673552369,126.9781589196142,272.8033148576652,223.46435441010487,277.1483686229798,221.06591728653007,167.52425476411378,129.34708057386254,14.5011625289917,12.7961196899414,16.2873096466064,6.61203336715698,10.4029140472412,11.1147117614746,9.08767604827881,13.034197807312,13.7230787277222,-20.2180862426758,-11.3996238708496,-11.9673900604248,-11.8353652954102,-7.66521215438843,-9.18628215789795,-6.46593713760376,-12.3913955688477,-7.922088146209719,1
100.2808139031518,66.82779996990045,104.66648111793184,58.42066404636597,87.3806909575373,50.75460429662501,84.42818664435704,48.79335003034674,92.8601559484102,49.81106672290826,90.69078510109348,44.19546608221291,98.14396478729282,59.11008627695058,82.3155306886836,40.13089805293118,46.20134997133892,17.352237735580257,6.20775318145752,14.8193664550781,4.38065052032471,3.9317262172699,9.64999961853027,5.48792886734009,7.1506872177124,9.69749450683594,7.690418720245359,-14.802721023559602,-12.966913223266598,-6.01605081558228,-10.6116590499878,-9.66346454620361,-6.16900300979614,-7.16458749771118,-7.38442373275757,-5.73917961120605,1
73.9749673632837,44.64143829024772,119.83526005217978,60.02704567245652,101.77199866936984,53.24715326422621,150.73125423512377,76.42296820655542,215.7383578066137,106.30599641929146,177.57883523725792,91.4296377805122,214.3923525531389,197.0599105862701,143.12024079889125,154.63057611158138,123.5321166084429,183.5758307730857,29.048498153686506,18.4671630859375,18.6130523681641,18.8934345245361,18.828197479248,20.2577495574951,18.4051647186279,15.7082958221436,16.9263229370117,-7.49460172653198,-5.13046312332153,-4.78931665420532,-5.8659725189209,-9.54541778564453,-9.21271896362305,-0.967950224876404,-7.206453800201419,-1.85915899276733,0
102.89245538101471,112.62559092793128,139.13279279689567,78.14726439876532,144.96059859903295,89.67129938329069,153.01447335953446,93.68267501727192,158.9754361570036,91.33737715879248,208.52849048620743,94.8040224727268,158.19722925826878,162.874406381053,119.08567818151,148.08828593386662,123.6603188392966,185.6925761028752,23.4979095458984,7.4802942276001,7.69731378555298,13.0570278167725,12.9887142181396,10.7858352661133,16.7916851043701,18.5899257659912,17.5650672912598,-18.1585559844971,-13.7051420211792,-14.092600822448698,-12.1577062606812,-12.8681306838989,-15.421145439147898,-13.552020072937,-10.4287242889404,-13.5242500305176,0
119.053273374205,93.9041997051174,56.61029467769693,59.65367766467848,117.86033828106106,125.04495564914193,178.10741792816086,95.62726674197997,194.5717137641382,105.32608935981764,173.90906608955328,95.63636650574918,143.93874998559392,77.45601576735098,129.84578978889093,149.0406502928129,126.6835815026786,185.480296142061,21.9963073730469,9.77723026275635,11.6811485290527,7.810807228088381,7.36506605148315,10.4218435287476,9.59269237518311,7.59420871734619,12.1727886199951,-31.7987957000732,-16.2760848999023,-17.3622760772705,-24.1259002685547,-16.9268493652344,-17.2664661407471,-10.3866567611694,-12.4678649902344,-13.9063730239868,0
56.96999344306336,115.61915140224762,82.29318382978857,187.15038765717637,85.1946416163856,256.3308447188212,106.84837460732092,221.12990611078595,117.03871331606948,217.82592869443707,95.92946784005784,205.92148299538596,120.0523896689768,191.42045284071435,74.82458987520147,195.6586331378041,74.17621130656882,205.86535234343236,8.71714782714844,11.3723449707031,11.8636178970337,11.6816339492798,16.1756362915039,14.3797092437744,8.54689788818359,10.6758146286011,12.7925434112549,-10.1106004714966,-6.893567085266111,-8.34899520874023,-8.69096851348877,-8.86925029754639,-6.3883581161499,-6.24445486068726,-4.98536968231201,-6.623693466186521,1
86.94481895478751,92.82019368158235,75.67741860692666,84.28271154686416,137.71858844715868,123.70554725727575,136.91212875623475,130.4350061539764,170.55243871946774,135.792772051622,170.114515698923,131.06481655851871,120.94655421790308,161.5899930156862,132.52502020981223,269.17897135752844,126.2401609660509,355.4837844532934,17.6433773040771,22.5228786468506,16.0312843322754,19.0139579772949,24.9781322479248,18.6524276733398,18.2060070037842,17.6307945251465,16.4219226837158,-21.1586303710938,-17.3391647338867,-14.8618154525757,-14.367566108703604,-13.682430267334002,-12.4415903091431,-7.29182720184326,-11.8556995391846,-7.158127784729001,1
39.57245846860467,33.44008534794527,37.48618189148904,29.49411228406553,54.80367398028383,55.22770627924382,25.757540097288665,29.181897899374874,29.266495602855965,30.588181418852272,22.724440728237298,30.746432926248907,20.771949799854724,18.572881438687435,13.47006089939779,16.10342494279137,11.02955089123378,17.5695890886596,20.9694976806641,10.6625785827637,11.0698003768921,11.8009204864502,14.1676425933838,14.4281711578369,11.1961488723755,11.9298410415649,13.2809076309204,-25.1125202178955,-22.4578495025635,-17.0633850097656,-18.4262809753418,-15.1571054458618,-11.3679533004761,-8.97477912902832,-11.3748455047607,-8.87948894500732,0
119.81270463091472,127.5775403467257,184.03172771568495,168.67283654073032,138.58673306624496,134.58657034741586,144.456555854155,88.92192953121638,154.66649043658538,62.89173852096823,215.9711658172294,102.17765573045952,160.90760355655257,183.0499399158282,116.60319854773444,133.10031751224645,141.88987130380295,190.69274020182343,18.2424087524414,19.1179962158203,23.3348484039307,7.39646244049072,7.76140069961548,10.29700756073,6.22713375091553,10.8183717727661,9.30715465545654,-21.6924877166748,-13.0460224151611,-10.087272644043,-12.5495681762695,-11.2197189331055,-9.72060203552246,-7.52037239074707,-9.5352897644043,-7.65847158432007,0
68.09852096731026,123.84187212340314,70.84124442223916,156.33838032241297,133.09878206932953,236.74094347167744,89.38121510660277,142.84194558862222,176.62243320007,182.5758654585812,133.70631396066702,186.4834478636899,153.91726061319375,250.70107967050885,152.87601291545823,270.73126079354506,45.6693207446929,83.40446658819421,27.813039779663097,12.8742303848267,15.329436302185098,15.9904270172119,11.6616544723511,13.7746210098267,8.62156105041504,12.3620300292969,22.4653549194336,-19.7933826446533,-14.5160245895386,-10.211576461792,-9.81890106201172,-4.97475337982178,-5.37958478927612,-3.26726627349854,-2.3347373008728,2.85535573959351,0
96.84003669824504,41.78405819696551,113.04553903251023,54.89154695362297,107.2573826380462,52.70728083428246,134.42430266719808,71.01824341607944,188.5330406760804,96.15538737349073,127.95702950700796,69.35057426062535,179.0705715733051,229.00842333689064,183.08326748554023,260.7741743002353,172.78117833059665,210.8049287408901,23.2239246368408,17.8157539367676,18.8898239135742,17.9489974975586,16.3081245422363,7.489786148071291,14.2051296234131,9.99341297149658,5.898841381073,-19.0711860656738,-16.7279567718506,-15.186266899108896,-17.0072174072266,-15.4032096862793,-10.6790580749512,-12.2275104522705,-6.63310813903809,-5.54735040664673,0
113.09399810257248,58.995098806108665,319.9823949466471,159.0749222884242,265.4324470414781,169.1540096304317,308.8415292978134,161.45200445208295,316.45242988179973,186.70211286552404,168.7362472332241,158.92291701689197,273.4808992745589,207.38613789760288,180.1854956999335,162.16294000068356,195.2891734882164,148.25968830149532,21.3041229248047,18.1748046875,14.5800294876099,19.612060546875,17.4398422241211,13.810567855835,14.2670831680298,12.722918510437,11.8953456878662,-16.7835292816162,-10.6475257873535,-8.11629390716553,-17.7949066162109,-11.6458768844604,-7.14627361297607,-8.52700138092041,-6.93904638290405,-6.900927543640139,1
66.99730951420989,64.92615211475744,194.96465150711035,121.3079984946568,195.62397868830436,110.7976134704122,127.0214724817626,106.11971787575855,175.04869812964515,114.21309470409705,153.30197396222425,96.29047068795252,144.06388515843474,193.89346921053425,212.3049744381161,273.7782294605506,151.6084047540433,241.13263074324,15.1357488632202,13.9637126922607,15.5678949356079,21.6239490509033,14.8806228637695,16.1902656555176,19.0612697601318,15.329603195190398,15.5460376739502,-30.47141456604,-10.4660120010376,-7.86483240127563,-14.2791090011597,-14.960916519165,-15.077926635742198,-13.3124589920044,-7.59279775619507,-11.5890378952026,0
132.89471245052147,84.12023001529205,209.84346691797356,177.913984690926,170.88423445737598,133.59210508637295,214.67759079229728,230.2906018705199,158.1094132739898,181.6301744408054,148.6757748325021,118.06482370325904,236.47633991001348,229.6981743504916,260.0007871217702,247.75322653120327,174.15466838584075,171.96195533452826,9.95382690429688,10.9087028503418,10.836709022522,12.4969177246094,17.2153968811035,11.3725337982178,13.8867998123169,6.08877897262573,9.26500701904297,-9.1464672088623,-11.6256484985352,-10.2639007568359,-9.8542423248291,-11.6573696136475,-5.97148180007935,-8.63592529296875,-12.7159948348999,-11.9007549285889,1
