F3_t,F3_a,Fz_t,Fz_a,F4_t,F4_a,C3_t,C3_a,Cz_t,Cz_a,C4_t,C4_a,P3_t,P3_a,Pz_t,Pz_a,P4_t,P4_a,F3_P2,Fz_P2,F4_P2,C3_P2,Cz_P2,C4_P2,P3_P2,Pz_P2,P4_P2,F3_N2,Fz_N2,F4_N2,C3_N2,Cz_N2,C4_N2,P3_N2,Pz_N2,P4_N2,label
211.04274621234697,127.6755781845186,230.347062651536,119.44137810082404,230.9542218556001,111.09861298161496,238.77311167981264,113.45274714120976,224.6937294195094,120.46992187403772,289.45821373761265,133.02631462113305,92.58450557355933,92.73827446432362,190.0851627434828,110.50762347257526,232.48899203571932,144.191192562123,7.11922597885132,5.76763582229614,7.60815477371216,4.50754737854004,5.4825439453125,6.7579174041748,9.25443077087402,6.97257089614868,8.67145919799805,-13.536020278930698,-18.592945098877,-19.5023517608643,-11.6635322570801,-15.299709320068398,-13.6536569595337,-8.24539089202881,-12.5667104721069,-12.885972976684602,0
187.96389963308948,128.78843953546698,153.48600336978305,94.77102574619362,172.24809513814816,106.0349014142052,164.24195209817614,109.49914190270522,102.06330999047668,91.2088898676168,86.99776891214117,83.84875659471174,98.92912551311908,138.97256556844886,78.9386167648609,100.45010518526333,51.57253843104635,63.64944045843424,13.6609029769897,18.1004333496094,16.6092796325684,10.0585823059082,20.3401870727539,19.3260383605957,13.2510776519775,20.8955745697021,16.0732307434082,-8.38119220733643,-9.25207901000977,-8.8406925201416,-11.2400236129761,-10.5217714309692,-9.09041690826416,-10.2824878692627,-8.40210914611816,-8.19724464416504,1
272.475142569726,63.62392383129091,213.5211248487181,58.67304428229647,190.3573599923284,69.5094089931938,250.6066032153262,77.10019252797926,133.0480771727295,44.11035729097378,172.609905475371,72.24778090289928,123.74127736317006,173.82152942819397,122.57591249681413,77.39467352472614,164.26183297248986,97.5255064676789,11.6674966812134,10.5398416519165,11.6483583450317,12.6952714920044,7.27670478820801,9.32458209991455,8.85594463348389,6.4732170104980495,6.10389184951782,-8.5188045501709,-11.1647777557373,-7.72679328918457,-9.56767654418945,-13.1244974136353,-5.48069190979004,-5.35280704498291,-8.9810266494751,-4.21459150314331,1
95.06642030232256,80.72143956567827,129.73934847892602,90.09213168911543,100.80463159983935,77.06690494708013,117.811139129277,111.18322958894316,127.5095274100601,107.39574523530844,125.97338620798196,123.0451963234856,119.31589441020922,200.45513164387145,133.70819427198788,175.54627036063292,174.0473582673799,234.8675663886482,16.9829998016357,15.482590675354,13.478949546814,12.9949026107788,15.6253356933594,11.7907571792603,15.357512474060098,14.3908929824829,12.515477180481,-6.24117183685303,-7.27852153778076,-6.06925201416016,-5.43299055099487,-4.64260149002075,-3.59085154533386,-7.9362106323242205,-6.879983425140379,-4.93870878219604,1
218.18623938893808,78.10710982231161,283.9457896765306,80.06840833296053,289.07852383883403,76.96449168030608,254.4674983429876,86.761843750564,359.72124656106945,98.86079675378268,361.08449003096064,101.30401491850093,106.53310924300614,116.56399422217132,318.6464791260891,107.67549547840952,281.0148680424746,127.50316797289676,2.91575574874878,3.7654151916503897,5.59413862228394,5.8441276550293,5.58176279067993,8.54959297180176,4.67784595489502,5.12872457504272,6.1857271194458,-6.1340069770813,-9.52834033966064,-10.4398651123047,-7.88076782226562,-11.6068754196167,-10.8360977172852,-9.18143939971924,-11.8468532562256,-9.61181163787842,1
140.18157156405994,83.88026710628745,135.2070769386586,61.36797933945275,133.2251165264567,70.16088762178988,241.5769251052872,181.3138437439324,173.88401839329566,122.4534982030148,146.45595264768667,118.47513652063624,148.44263690180628,146.36815947735704,82.02238327136183,109.19051702017684,135.32467407723036,190.5794977180055,17.0188732147217,15.457946777343802,14.859484672546396,12.6519441604614,18.7597980499268,13.6839275360107,3.571483612060549,10.3325901031494,5.72244119644165,-4.1031436920166,-3.04686403274536,-1.67941331863403,-6.72336292266846,-2.55180048942566,-1.1203715801239,-11.2121677398682,-10.4246101379395,-3.625896692276,1
207.76084800968871,88.43182536622443,301.1077341825851,120.47156876240837,345.34803329802304,127.09085513852868,156.30458052098658,76.3548237638228,189.50306070531,76.05585396483468,234.13212368993825,109.1741352330408,107.35712106935004,100.41754373174778,116.6102598265436,88.34646585957815,235.9942806288537,119.46370462164838,6.439353942871091,4.49040126800537,8.6900463104248,10.3979263305664,7.75044393539429,10.5122413635254,7.44396257400513,7.84761047363281,11.4930257797241,-1.75625705718994,-5.49092197418213,-5.8715968132019,-4.68022775650024,-3.7237379550933793,-3.52471113204956,-0.601536631584167,-1.69515919685364,-0.275341093540192,0
144.53865575264257,170.3151117326014,185.5619772716192,224.06714042895413,180.52887790687075,222.4690812615792,173.1909299593667,205.31117675934735,138.097487502206,184.0550947549306,168.39363134076763,181.0033984208342,79.27030165771266,142.13451585282087,145.93300374651463,135.40012687523944,143.75988010548366,112.73209936115028,0.8878088593482969,7.0547890663147,8.36857223510742,3.40996694564819,5.92757368087769,8.56062602996826,7.684970855712889,5.3766508102417,8.93987655639648,-11.6379776000977,-11.3685817718506,-12.2311429977417,-7.700893402099611,-8.95248699188232,-8.74265289306641,-4.07463455200195,-6.97452068328857,-7.03378820419312,0
235.3802646867153,67.55809003933695,227.725576307932,85.65775212815139,217.0787823797576,91.14541789548508,228.51351843266195,134.91217018262049,197.5068366407664,87.63569057829952,176.185157108261,81.052517017756,186.6617263650915,210.94675525554243,282.0270396713745,189.94665806452383,138.08314754695874,154.90551627194944,19.558385848999,21.3394241333008,22.1233310699463,11.5376644134521,17.8452396392822,20.7822551727295,5.68981075286865,7.48018884658813,10.0973873138428,-14.7307624816895,-18.2535533905029,-16.2057647705078,-10.9138345718384,-16.5878658294678,-16.7314472198486,-4.31593799591064,-8.77096748352051,-12.6616859436035,0
184.42085804791984,190.6301972444929,270.08268678402607,260.2692062277649,244.1132264812161,252.0679134926467,156.26661464325585,181.9777206546137,197.20994300312373,222.12692071278695,281.07715117145403,234.97783516305043,103.27708025413914,128.2615988196462,152.8891611941723,172.7729268307881,153.14222168104644,153.01658733703522,11.9515895843506,9.53914260864258,9.83926391601562,5.81091737747192,6.08646106719971,6.29227685928345,10.9086389541626,3.5032291412353502,10.7565870285034,-16.5077171325684,-12.4360055923462,-12.3204660415649,-14.2731714248657,-11.978048324585,-14.1968107223511,-9.04336357116699,-9.42585277557373,-16.3357925415039,0
163.2875035684172,58.29398562737314,158.6996830292433,52.87031723672342,237.70792955133427,95.5489678513766,170.4442918359993,72.72283946941197,255.98240569278636,104.68976302001592,159.3470533463525,69.42544263228513,163.92117583749192,98.59284324520088,133.8521396684922,73.03508269026584,155.56196318219406,127.64153749457154,12.2916698455811,9.97361373901367,9.25017356872559,10.8174667358398,13.2118339538574,11.2028141021729,3.55239772796631,8.57825469970703,9.23661994934082,-21.2132987976074,-22.5290679931641,-16.6348266601562,-9.53830718994141,-10.1683654785156,-11.0274753570557,-3.08677339553833,-5.99144887924194,-5.42874336242676,1
297.8902540754045,81.93072621786851,259.84511235808776,69.28732038375638,214.6590519005979,85.64558709963238,246.81023761330897,93.77540627403444,209.53028888802865,72.28337582714063,162.2383092483448,72.953948091514,105.49347660641595,121.2866921460896,174.4668163751598,99.15761666483088,115.85572706786012,62.921147599543865,19.018045425415,23.2668113708496,23.4977569580078,7.1554064750671404,17.3339958190918,13.8976163864136,8.19330883026123,10.9705724716187,7.241250991821291,-9.29969024658203,-10.5020017623901,-13.1989469528198,-5.99154663085938,-9.27917003631592,-8.4793119430542,-2.72507739067078,-6.525186538696291,-6.69687604904175,1
210.99760585900367,212.7260262571719,227.38306893246653,256.79921169261354,236.6380686601817,263.3143751499135,150.58029922755804,201.2622175820225,256.30457561201774,348.0474103362346,161.19585089215474,241.9267056696052,161.06485351376872,195.14360125797327,148.61010447579162,203.38317947236035,137.93182672971844,148.18730463398376,11.5873603820801,14.5780334472656,16.9148788452148,7.526985168457029,9.94466972351074,8.59007930755615,5.84098196029663,7.792913913726809,4.31948471069336,-13.0129404067993,-13.2326059341431,-10.6189785003662,-5.55955028533936,-11.8438720703125,-11.8562955856323,-3.09531140327454,-5.44297695159912,-5.3850622177124,1
250.1939685496865,230.02122364447004,205.81874707234647,178.0047375625765,235.2815073745032,180.50925631555285,264.909665117834,159.41143110654983,268.3226039353544,193.2686035257489,206.6511405716605,150.48654555893083,183.946735933132,182.54823338339855,195.21406450682136,136.10568952926354,186.190029952848,130.69886729066667,10.8671407699585,13.8481187820435,12.8823165893555,11.3144664764404,13.838879585266104,13.7000646591187,5.00578689575195,14.068660736084002,8.19118022918701,-13.9959802627563,-14.766303062439,-15.4477005004883,-4.60657501220703,-11.90025806427,-12.492730140686,-2.9499683380127,-6.96182584762573,-8.06798839569092,1
177.11843855418553,137.10539825866374,139.5358468283209,126.54705081098156,128.04087631758554,113.79843639806565,149.16999885595754,139.95256730820037,128.50156521047006,152.17675552331428,160.41530986166896,128.03963112257122,120.64469925126862,162.1971326837645,206.1728839481734,239.54182490102897,211.31096416059344,226.0769030161202,11.0532836914062,11.8152027130127,12.6027975082397,5.50539016723633,7.44116735458374,9.51808547973633,1.63296604156494,5.57211637496948,6.24800300598145,-8.28348541259766,-5.95764923095703,-6.38007402420044,-6.27863454818726,-8.82903480529785,-6.77348041534424,-4.98710203170776,-5.69778966903687,-4.03946399688721,0
140.22623621486096,68.80191981516262,143.8888489916174,66.25161501074953,138.38700497658883,64.23040957652294,117.0455434203455,81.9527335828526,122.43488413498343,114.50803586474596,120.27525637977048,93.64812725146122,171.7988079636081,227.37320534678935,96.64584318124136,95.99501507178071,158.78296924567877,113.65817468000904,16.9185771942139,13.3042573928833,15.4683094024658,11.1850690841675,13.0637865066528,15.2704601287842,7.287820816040041,5.99022006988525,4.01961755752563,-16.0668106079102,-13.540976524353002,-11.7314233779907,-7.07629871368408,-8.4417781829834,-12.3799333572388,-7.271571636199949,-9.80764579772949,-6.83620023727417,1
136.94178627741914,263.70972678295686,124.1693509498823,232.63888406497344,139.27343812386908,226.8224276814522,142.5596794866472,209.6432825826648,97.61978585943058,214.67316861677352,125.48060084721456,279.7515537228334,102.17984459061584,295.5945852567374,132.0921329453487,246.92156254621608,110.99541395502308,175.0489961015158,11.4728956222534,11.565357208252,9.55185127258301,8.0383996963501,8.84181499481201,8.01745986938477,4.58109426498413,7.95202302932739,5.45747756958008,-14.47292137146,-14.5852193832397,-10.5016975402832,-14.8686752319336,-11.701602935791,-9.67686653137207,-7.68342065811157,-9.35735416412354,-7.6944580078125,1
224.5509315696066,177.13881169830103,231.437732458804,227.0805581200831,200.3485016475853,207.96464096057176,105.6584587551634,129.03908572236344,195.4477155934694,186.5448130771013,169.83137494833528,142.09704378795578,144.94767028243808,268.95198708870424,230.69815707955465,209.9419624651324,135.89429205168304,102.53258232901642,1.98837041854858,8.63642883300781,7.727321624755861,3.6039052009582506,5.77305030822754,7.24715328216553,2.90301823616028,4.8995566368103,4.89609909057617,-8.27646446228027,-6.67438840866089,-10.0156002044678,-3.9141359329223606,-1.35882258415222,-0.706757426261902,-1.6795300245285003,-0.598220944404602,0.301774740219116,0
112.72698290070528,108.29251196935368,143.40224251059328,126.89395372208736,191.4078351833801,146.71824168676102,132.2501326658536,151.20491105478908,104.83172570787345,136.56009834031096,111.0880120349533,115.0044223519729,156.46935929028993,196.7527937069622,196.96707253270935,284.53281378438544,93.30156951631416,105.96593826079892,15.311754226684602,17.4821395874023,20.6744251251221,6.452103137969969,16.1414737701416,19.0202140808105,6.57904052734375,8.25650024414062,13.2620887756348,-7.498191833496091,-8.25697708129883,-12.3395566940308,-6.09474086761475,-8.37853240966797,-11.4586000442505,-4.70123243331909,-6.793023586273191,-3.9579997062683097,1
