F3_t,F3_a,Fz_t,Fz_a,F4_t,F4_a,C3_t,C3_a,Cz_t,Cz_a,C4_t,C4_a,P3_t,P3_a,Pz_t,Pz_a,P4_t,P4_a,F3_P2,Fz_P2,F4_P2,C3_P2,Cz_P2,C4_P2,P3_P2,Pz_P2,P4_P2,F3_N2,Fz_N2,F4_N2,C3_N2,Cz_N2,C4_N2,P3_N2,Pz_N2,P4_N2,label
242.9066082481584,140.2690926263545,163.86236152387005,154.06646523396293,221.31990381701695,274.15128630855946,217.43659522228285,379.8138084399637,124.87810349291176,205.37451771458356,111.09246111435742,154.93640869512694,130.5278821697294,218.75318310422008,128.45344205423262,252.7703648278126,102.6192970696838,199.0479598405568,16.9743480682373,8.99097442626953,8.29949283599854,8.42539215087891,2.86904191970825,1.53626251220703,6.417606830596921,2.66614723205566,4.77566385269165,-22.7837619781494,-12.233904838562,-8.89351463317871,-11.2289447784424,-9.7866792678833,-12.0182209014893,-8.37890625,-9.62977504730225,-14.9010906219482,1
230.24025897780797,94.8828698272092,302.9589520851432,89.75160651183565,296.6440966904317,116.68700225491804,355.56402992059554,73.51984599741813,438.3676076231759,149.06611232194723,504.0855607970354,250.8614335071676,276.92350837881224,131.60816096283156,234.0242588988119,104.85961350052524,271.8919976690374,164.8785713329171,15.483551979064902,13.3698453903198,8.95467853546143,13.091224670410202,6.583652496337889,4.61781072616577,11.8734254837036,16.4299087524414,12.5525932312012,-7.25090789794922,-11.3305358886719,-5.75737476348877,-6.08729791641235,-9.38493728637695,-7.811440944671629,-7.48378801345825,-6.70746755599976,-6.05952024459839,0
336.9974133647095,94.2867298695378,241.71638503119067,65.54966338899206,267.81731604441035,125.78167150852067,198.55699758012068,81.46342439665129,171.64426186406146,92.8945794569792,195.1919432750312,113.00336303604232,188.19253354036348,229.6287345585426,211.3827578069991,226.8700545856097,231.1346745221749,230.9791431288753,7.479400157928469,9.07161045074463,6.72060346603394,1.32076418399811,1.55657279491425,1.61375057697296,6.07350540161133,4.82546424865723,5.43948030471802,-9.73782920837402,-7.21248245239258,-8.99025630950928,-6.3630576133728,-4.05582189559937,-2.60232543945312,-5.7131872177124,-10.3674802780151,-4.45988130569458,1
324.4378717076201,170.1984012306878,233.2752975335173,130.73674122988336,410.5591278544936,224.0574434788712,249.17183750632788,203.1818639262498,277.88606968609304,278.8312182085506,362.9599220767208,267.5618465226577,182.6836523536934,263.80990543251653,264.33882129212566,348.9232803089702,223.73805591208364,274.1673617123692,11.2095384597778,6.11182832717896,12.857873916626,8.94275569915771,10.5229616165161,7.11370801925659,7.64047908782959,11.5508346557617,6.29802751541138,-8.67077827453613,-4.56618595123291,-9.94081878662109,-8.44201850891113,-7.0542311668396,-6.18432140350342,-7.47729015350342,-14.3399572372437,-14.136549949646,1
270.4196425758141,260.4495729209408,218.58154650663224,193.15560048480677,175.30547566041892,136.55927818486936,159.72892798505194,112.26425879976154,147.82492006548756,135.67316264702154,132.21265252148993,117.60214351730124,126.4648639145821,144.16940852239213,146.33040308765135,248.328129881799,90.41400567696176,145.22785288471698,4.87386751174927,7.84918212890625,8.62009143829346,8.68372535705566,11.8468189239502,9.30839252471924,8.57630062103271,13.2936773300171,13.555303573608402,-10.2632713317871,-10.8078937530518,-7.80305242538452,-12.3447494506836,-12.1573829650879,-11.0100936889648,-12.7085771560669,-11.9893655776978,-10.4154348373413,0
304.2616382216433,210.1239101202605,309.5680555202439,153.0304094804244,240.8313206039425,145.48474131982792,364.1306796739421,245.11408465940016,202.4893345696406,157.9224310761133,203.3342786984571,149.62580400665283,200.52017583379765,254.40871707947656,193.88006881435587,272.94198246466226,205.4509803601348,240.4280355166245,8.48343849182129,15.4129152297974,10.0729360580444,9.78421020507812,9.74860668182373,7.927274227142331,11.619194984436,13.817947387695302,8.49443435668945,-14.426477432251,-30.8113250732422,-30.7654418945312,-23.9168148040771,-33.8417549133301,-30.2472152709961,-19.4101047515869,-18.3627185821533,-16.7074661254883,1
219.9283514197917,172.70407005510674,188.46225601712865,167.98317402025026,255.942430478283,232.898715476951,234.50818042781367,168.51270042783867,194.56864546558168,190.07134397469008,292.44382659585165,281.206841072264,226.0252067293048,316.775883225157,264.5037751053273,380.8926697008567,140.15800721122008,186.71729304977515,9.11393451690674,7.33233165740967,2.26172041893005,5.96145820617676,2.95110678672791,2.92949604988098,5.45401811599731,7.90926122665405,7.648321628570559,-3.49876427650452,-8.01887321472168,-3.81016993522644,-3.58905124664307,-6.1067042350769,-5.63988494873047,-4.21031856536865,-9.74893379211426,-8.25390434265137,1
166.86876843929343,123.53040252766353,199.33951484207964,158.586125321229,200.16817193248627,176.15715463709822,319.6410184152208,287.9910533790172,362.4078920649543,308.30193556420875,174.2817454004088,196.70816751503344,195.8409325406622,304.5563601340692,164.45418657783733,278.04736987221133,165.02934982112265,348.065932599336,16.9120750427246,16.8100528717041,17.0420322418213,14.9927959442139,14.5953044891357,13.9935970306396,8.07059001922607,3.51218128204346,4.48156023025513,-18.9230918884277,-33.4540328979492,-25.8089542388916,-15.4691095352173,-19.2829914093018,-18.8703804016113,-14.218892097473098,-11.7969923019409,-8.48580551147461,1
105.34699529044268,123.63840839865982,132.18082480441583,138.79987493322508,223.89101874948932,225.9909824558113,145.1096606083153,187.94570168129655,238.2226399690008,218.41655049469108,224.45810967129773,170.96034310945518,125.50013956580274,176.99063317614213,154.72754113463773,168.38267911383008,207.7999596780059,162.2522859502733,25.9612407684326,26.4726619720459,22.8747463226318,21.7109889984131,21.675802230835,20.8475093841553,18.1158409118652,19.3491077423096,19.0330123901367,-4.10281467437744,-2.34543323516846,-5.10043001174927,-3.4131932258606,-4.54195070266724,-3.2742192745208696,-4.50843095779419,-7.17547225952148,-12.109429359436,1
320.2516426118394,234.17164337049127,298.0865083887357,172.5738666879225,382.7140406406727,190.3583886254117,339.21772306824033,261.3137071627969,262.4052658797247,168.6855828810696,200.02958546858693,102.08327197972416,283.4411334359265,356.2858504076989,109.10997372499916,135.66789424480652,110.37404864082274,115.51011215037222,8.62891864776611,10.4187183380127,0.293248355388641,9.43045520782471,8.09587287902832,5.11506032943726,7.50220584869385,12.6521368026733,10.1050519943237,-6.71361446380615,-8.05780792236328,-4.39026355743408,-4.7634711265564,-5.07535171508789,-1.72700190544128,-4.77039480209351,-9.92242240905762,-5.07383108139038,1
243.63225427237455,193.2186130165301,192.81445166253772,149.4352409558548,174.6834226141496,121.67491635681614,259.48250336926765,169.44687306630254,247.11718445148347,179.4583277378324,222.47636148418516,140.06381280435525,343.85128853528903,261.13168403962857,269.28202355274453,230.2969284115958,232.66792944121443,159.44977640706853,9.58654975891113,9.0196704864502,6.9820256233215305,9.36715126037598,7.377115249633791,12.3560733795166,8.50896167755127,9.43888473510742,13.8456611633301,-13.8569250106812,-9.90518093109131,-2.73501539230347,-6.84049701690674,-3.22464942932129,-2.44129014015198,-4.99847459793091,-3.3894608020782497,-5.897292137146,1
253.32270940839064,131.8574821960431,100.53747948856528,68.75808942645186,471.0019441484634,303.13255934109327,249.3308603809533,213.8417045371445,385.9132436219471,244.84042042122644,442.9957659108295,321.4937494928489,379.5087248735239,310.0603115147096,489.0390009861407,498.2603186280123,338.3291335213766,276.7574438373889,9.12072849273682,11.4513387680054,4.32552433013916,9.28595924377441,4.4251856803894,2.75225687026978,4.40787839889526,4.46502590179443,2.16334390640259,-13.7885217666626,-14.4091911315918,-9.65034103393555,-24.5519676208496,-11.7788438796997,-11.115385055542,-10.9084749221802,-9.55692291259766,-6.24462699890137,0
296.1060509663142,160.51940304830842,201.07063725102844,142.38023988313012,321.1181220802106,158.60855376918627,190.7637567195931,150.4352669992578,237.54061171942192,215.4864536625084,264.58281444000795,139.04444181223153,189.18733247450947,342.251346133703,193.3466281787883,355.9842912426913,177.74646928705977,204.17914526626691,16.2639617919922,14.3482437133789,12.3432893753052,14.7651538848877,10.2896947860718,11.3278369903564,12.2117023468018,19.9036598205566,18.789457321167,-17.5424480438232,-13.039159774780298,-13.4367904663086,-9.27099800109863,-12.160195350647,-14.6646642684937,-10.4096403121948,-11.7215375900269,-11.5975427627563,0
386.8762120984516,114.25985888497576,312.0674112512171,72.28710786152638,589.3009273821783,167.79870705616463,341.0911722705451,141.31002933349427,472.67565630967766,242.45621039584083,463.30291648480153,217.7911653152481,334.8568692022001,265.62534198092965,190.49932674434305,172.9068710977692,290.4335992921912,198.45981141530152,19.9825954437256,19.5845794677734,10.8293771743774,18.8394756317139,19.1498146057129,13.4607458114624,16.8880634307861,15.0613946914673,11.2163143157959,-21.3991394042969,-9.97173309326172,-8.65466785430908,-22.3479976654053,-19.1531925201416,-8.77498531341553,-21.5040798187256,-15.9170227050781,-7.61248207092285,0
224.8994081816341,98.4385769975394,250.817725939439,152.0554897809891,179.87912453611636,107.87205614644068,111.4785961281824,90.09928473443928,147.4959600769832,112.12740089600253,168.99941662455532,94.2618611688701,102.91487157404416,89.57601593996196,121.00282337650404,108.37140437897877,139.66974787865306,107.53382533204862,15.543625831604,12.4434070587158,12.8306007385254,15.1382141113281,9.01372337341309,9.40543937683105,9.61430644989014,8.11327457427979,8.86863994598389,-7.06536483764648,-8.66264915466309,-5.69129514694214,-6.4782862663269,-8.12233829498291,-2.98234486579895,-10.5403022766113,-8.93990993499756,-8.49002647399902,0
231.5138602005342,239.6041647323096,318.64505233199355,378.7017248555165,255.4744742773268,230.04474999756636,246.68433939789855,339.3596210698081,357.3831035039463,453.1362588636187,394.58964019003264,413.1385785395025,244.01099298137268,373.062893796273,245.9201191560349,324.5898828841704,295.00036293393646,405.4545663078896,5.44035387039185,17.8118572235107,16.603328704834,12.5184926986694,18.44065284729,15.0690441131592,16.392448425293,20.2903900146484,17.9351577758789,-10.7804613113403,-20.3448791503906,-16.3011589050293,-8.57160758972168,-9.9143762588501,-12.993247985839798,-4.36997222900391,-0.219380035996437,-4.58709478378296,1
317.26782551571443,132.1352193398447,356.0880949531731,149.16707023831196,450.3788804125981,255.10463443823144,304.0345444487461,223.19887456250564,267.9376231168925,254.09066521432655,252.16820982152228,174.17065647843037,233.5023208143028,252.6632326523981,147.00296746337708,186.07198145836708,174.98719886028192,226.76447113207308,11.8185424804688,5.85422039031982,10.3248310089111,6.31530094146729,9.77284717559814,12.2537231445312,8.96688175201416,10.4581499099731,14.5717811584473,-15.8731803894043,-6.25472927093506,-14.6976499557495,-4.53797101974487,-2.8656017780304,-12.4079742431641,-2.46103477478027,-2.71814179420471,-6.30760192871094,0
129.2624076138093,49.475533411642665,64.38502052904016,32.22327810490439,166.63397503635937,67.82580561625751,169.41388896958466,127.63251131216408,170.52966242155625,157.43965159021968,173.85537079676303,129.26278786454805,129.83251970069142,125.0252783333792,123.38225146660687,130.9143957985976,145.7291809134729,143.0371288713713,22.9349365234375,18.7471389770508,20.2989635467529,9.42886734008789,10.2622365951538,10.8974180221558,9.00572204589844,9.37413597106934,19.0067462921143,-10.0512161254883,-16.2261524200439,-7.90969324111938,-5.82802724838257,-4.6613712310791,-3.3299548625946,-3.5985884666442898,-5.75713586807251,-4.83852672576904,0
229.73442539768143,191.51402167171452,243.9897742686373,223.69946983393595,344.2136000357739,213.88560285776015,259.9670815421559,162.46957450433607,310.4898934315603,202.8998675915287,286.770889091319,224.78124968485008,260.75008354448505,208.90038250187945,241.4336579394767,189.72151478305184,190.9923348845357,182.16499538914636,18.8827571868896,9.30133628845215,7.34385919570923,3.78890323638916,5.53866004943848,9.26256370544434,3.1149275302887,5.15311765670776,16.0787391662598,-11.1698093414307,-8.284423828125,-2.8655378818512,-7.319035053253171,-6.19808864593506,-9.63494300842285,-3.23919987678528,-5.57561779022217,-5.57838344573975,0
312.06385848577884,233.34644214446536,101.63815776498248,80.30921184117656,281.07802979402226,251.51989138566896,190.0856941495452,182.9480033952785,206.9726161572874,153.96980870200474,154.33749806603993,118.79308126452982,176.25790963768088,137.54525741505856,189.40411131036427,167.0311495168746,218.8340836607432,206.6308093289156,5.67181587219238,9.21984386444092,15.1561698913574,7.202761650085451,14.393581390380898,12.437255859375,9.22522258758545,11.1999292373657,8.93219566345215,-13.547556877136198,-9.14640045166016,-7.26902055740356,-11.8052177429199,-7.41613388061523,-18.8470020294189,-10.3757410049438,-8.59127330780029,-8.55719757080078,1
181.07762226570227,170.46002779697804,134.58744750407658,160.83014005849088,128.12762453649978,159.0825041991328,151.57316673392688,138.3126840437689,141.44912555583386,128.5964992790521,141.10218138375737,135.26889781004144,244.60574678966407,226.7845659648505,194.22552184394584,159.99154330712008,138.20108216899288,119.09915583705325,5.94737243652344,7.46600151062012,4.58578634262085,3.54160070419312,3.45799517631531,1.84784698486328,6.919124126434329,3.65479636192322,2.32134675979614,-14.386837959289602,-5.36799478530884,-5.71265697479248,-5.72119140625,-5.31637048721313,-5.89142894744873,-11.419882774353,-5.77606534957886,-4.86136865615845,1
396.6359154749194,176.59612134799224,504.9157588565846,183.4146525973433,461.3856513835463,180.35751535734684,420.07114613455707,216.4886634829195,437.40401419021975,175.71756918233353,462.5825512285376,212.8192366182008,326.6230111332984,218.3560309514484,337.19213116943143,205.34194815767216,301.1943715083807,199.96983779134945,17.4066524505615,24.3415508270264,26.931169509887702,20.1598110198975,23.5591011047363,26.86883163452149,15.647044181823698,21.7147693634033,17.2498893737793,-15.9499216079712,-13.245467185974098,-14.7934589385986,-10.5295505523682,-10.5219326019287,-10.1936502456665,-1.58281660079956,-7.0092658996582005,-4.01334047317505,0
291.822606126691,130.67920130951214,422.997452640604,238.509116223933,375.4007412922125,208.5543740796133,229.38232223058208,125.34128955453848,182.0626116061793,118.22768764153756,313.0055968930312,156.57679941210216,111.3301470951396,119.82869054247864,142.54611550256618,125.50290624254848,172.22552438762852,240.31144871235236,17.4646682739258,19.3734836578369,18.8555450439453,13.4117574691772,14.0199728012085,15.2086191177368,10.1027326583862,14.6271886825562,8.13091850280762,-11.736533164978,-13.4178314208984,-13.0321569442749,-12.2412710189819,-12.9416780471802,-12.352707862854,-7.09526634216309,-11.3688383102417,-12.1172027587891,0
260.90602759474,267.1981711986897,236.85368822338637,179.72821860345854,219.2566412478695,231.7965493410343,282.1593903438744,294.3472864889008,337.9846554976867,333.84214562495947,294.22644899623674,246.17916994357373,265.3450677055061,441.0364275808048,288.80558741937097,334.6765453828306,238.177347049474,287.86197675792863,10.40793800354,4.63611555099487,4.72552871704102,9.71464538574219,6.28761672973633,9.55006408691406,8.89067649841309,12.6309299468994,8.32535362243652,-18.4952907562256,-3.6912770271301296,-1.68014991283417,-4.64098596572876,-5.13546943664551,-6.96174430847168,-4.15729522705078,-7.73659992218018,-4.20173263549805,1
481.37639648065294,411.9777817396836,231.81258318167573,195.12813907398865,349.24546834029934,255.37133452957303,281.3838724867784,245.1911895938448,362.0374458872927,381.0574390809159,361.4183264496044,308.0765401525368,281.2935724749374,333.9069186830643,264.252943577984,318.231834505363,240.0664074806054,292.0162235823702,24.1876449584961,26.0927104949951,20.5674839019775,15.591157913208002,11.5132083892822,14.7505025863647,10.925820350647,16.7951927185059,9.54413986206055,-5.68514204025269,-14.143412590026902,-13.143782615661598,-5.29965448379517,-7.72472763061523,-4.95065975189209,-8.11947631835938,-5.66855096817017,-9.47037029266357,1
