F3_t,F3_a,Fz_t,Fz_a,F4_t,F4_a,C3_t,C3_a,Cz_t,Cz_a,C4_t,C4_a,P3_t,P3_a,Pz_t,Pz_a,P4_t,P4_a,F3_P2,Fz_P2,F4_P2,C3_P2,Cz_P2,C4_P2,P3_P2,Pz_P2,P4_P2,F3_N2,Fz_N2,F4_N2,C3_N2,Cz_N2,C4_N2,P3_N2,Pz_N2,P4_N2,label
173.86638401334105,198.48228291750831,182.2096783576964,186.6557149190171,130.742750788948,144.70182878457916,153.00935126041884,95.26624345512894,163.2203140468378,136.24354244298075,126.3600352449609,127.56721047202832,90.01372407331178,60.222670617379386,82.52259990788194,81.26150936768391,89.44058731816287,88.5598585529449,14.346040725708002,15.7340526580811,18.2629852294922,4.41417551040649,2.56473159790039,6.795361518859861,9.49100875854492,9.63788890838623,2.60713744163513,-24.715217590332,-18.6645889282227,-21.9195213317871,-16.2033462524414,-7.70696353912354,-7.69617605209351,-7.442437648773191,-7.72622585296631,-1.02646660804749,0
115.77138919900658,77.87653414715558,152.14025459685303,109.94529333276928,75.84404564466,87.8721969140986,111.63412382465744,68.02919968190197,135.52474135240342,109.37603942201726,146.25931364788408,180.75755242509211,147.0481856851287,114.70245275297437,204.9606331409085,158.7292278557888,151.38309331926345,173.0794341445267,5.07132339477539,10.4315538406372,7.67074680328369,2.2018256187439,12.0653877258301,9.90433788299561,9.61799049377441,13.3219041824341,15.2819271087646,-12.3757495880127,-18.7208442687988,-18.7277793884277,-4.59560251235962,-8.38054466247559,-9.70875263214111,-0.527018070220947,-7.68124055862427,-4.56571292877197,1
103.44638294243656,120.7682428430016,204.0490897413765,137.71707057443325,116.78340427300527,93.02304206063133,188.96732886922663,151.77057336568666,169.91721222785387,103.64928114095096,97.31505593167162,75.5290234746089,246.48509267512424,144.71080074703298,343.3842869749309,145.3532171536943,197.34096366026603,73.84222611932879,17.7765846252441,19.713586807251,30.030139923095696,8.13391304016113,15.486273765564,9.64731311798096,9.93018054962158,10.5509443283081,11.1110858917236,-12.2750234603882,-11.2869472503662,-12.1924180984497,-6.854609966278079,-7.46809196472168,-2.66985964775085,-8.10264873504639,-4.48216342926025,-3.01082491874695,0
103.81991041671772,76.55903401271507,142.05996654380152,78.68821763536401,128.894998144371,85.29164604227651,46.00144594725543,32.66930456733069,247.2323007662888,179.25041851825483,180.72958446382705,138.6622903459156,66.09635974677524,52.992263388889015,92.1861951282743,106.058495531057,125.60553765439572,112.16061755524484,12.4391231536865,10.0809116363525,13.987465858459498,2.32866644859314,6.39625072479248,9.01763534545898,7.125836849212649,9.69417762756348,9.93993854522705,-14.0135726928711,-23.5391674041748,-21.0394458770752,-6.83351516723633,-13.363429069519,-14.8645725250244,-3.0974018573761,-10.5378456115723,-7.91980648040771,0
166.85778929000836,92.10006894107634,135.51933272066802,90.29666251985677,110.50482385264168,96.95424302477367,104.95530312062913,56.8146329912714,108.4971059215243,76.70458345443606,85.42166444142778,60.8106885908309,136.9409700743819,102.35170430169516,103.8782959323038,102.69131157286698,107.88914660266724,91.57086612206297,10.6455593109131,19.8522548675537,15.9792623519897,2.64846658706665,4.96668529510498,6.34244775772095,3.36008715629578,4.74707937240601,0.584455251693726,-5.48664951324463,-9.47088813781738,-8.63860893249512,-12.4258785247803,-10.8280344009399,-11.2920551300049,-12.5453119277954,-6.03309011459351,-13.255597114563,1
169.6491825473572,82.3823561147684,246.09842041452188,98.81742117022998,98.84813465897462,66.46121619526501,131.07677306634525,68.81460570852687,124.95739398747544,61.6065070513184,168.70888720619425,74.4754478068963,120.11673576653926,84.1507984950165,143.7667131703512,87.651629640826,156.89188630295897,72.46090504999867,9.9310941696167,18.9130439758301,10.8265466690063,14.1790990829468,13.6326112747192,14.1167879104614,16.0973262786865,14.105902671814,12.2999677658081,-7.95171451568604,-10.732551574707,-13.9830837249756,-2.44156289100647,-7.48592281341553,-8.47891139984131,-6.784806251525881,-11.6687784194946,-8.09287643432617,1
246.7880246326752,150.90974513135205,169.62122632446582,96.39809768995995,172.1315691926046,98.26709667192657,191.20936841492403,118.06973993421562,232.36330685531956,160.6660091224847,100.87657075682468,159.32276585808322,133.65704642386643,157.1732763422956,160.8848439184028,185.49214511054015,113.38725343268968,146.13909517418787,8.4301118850708,2.84383487701416,11.6307516098022,7.63489866256714,11.9890470504761,12.6076974868774,7.77744388580322,15.8436241149902,11.0284385681152,-8.92638683319092,-4.67313385009766,-6.2286810874939,-6.91336345672607,-1.03937339782715,-2.82409834861755,-4.15338850021362,-4.05017566680908,0.582916080951691,0
82.74363674747298,91.09087723715838,158.39255536670632,122.31436824027264,161.56423131462526,104.2265677365278,169.68217790505983,142.96957784741983,315.3775107728557,236.36195260017084,264.2285946003934,229.2914584367886,110.05969870247962,122.68759724384444,87.39348085875318,90.56651488299453,177.8763583607179,175.91850399731769,5.92352485656738,1.3149094581604,6.67428588867188,0.59465879201889,0.776268243789673,2.55896782875061,1.26825213432312,2.26485013961792,2.49948501586914,-15.590348243713402,-13.0357847213745,-12.6709499359131,-2.31339430809021,-2.55169343948364,-5.58431196212769,-4.54852819442749,-3.4460706710815403,-2.55726480484009,1
163.8908649807618,82.77208815446484,238.34215386039045,138.43023270504077,133.7961657662744,56.92286738122189,329.25574178275207,184.98132941595708,265.5692912142864,170.45046017728544,176.962897045987,91.83437682535305,258.0634736524846,114.16897845514896,348.0644472429396,111.44463113797184,232.7079393915758,70.05629598249101,14.1288948059082,10.9612951278687,14.282743453979498,13.4043226242065,6.83300304412842,8.91888046264648,13.4647359848022,13.8119459152222,13.162353515625,-24.4811935424805,-22.5113716125488,-13.6719532012939,-20.3926372528076,-14.3207731246948,-13.38942527771,-14.3256597518921,-18.1989097595215,-12.237286567688,1
110.05184562062942,89.00208484607384,275.78419225947044,197.8842030698976,193.4806545236919,172.85939559380074,167.8443235233678,93.56323716755747,202.44523715071813,144.04792287503608,131.61048153152757,88.44043881861298,153.98454222702065,156.00234522495936,136.97036539604738,90.83566609669845,164.87143008712945,72.27132434756558,7.226139545440671,9.71635437011719,9.29554176330566,10.6475811004639,16.4157772064209,12.3516864776611,8.17096614837646,14.4526882171631,11.7653884887695,-12.3836479187012,-14.2146892547607,-15.403426170349098,-7.8417067527771,-5.70545196533203,-2.69224500656128,-8.03193473815918,-0.611532211303711,-1.99516260623932,1
115.0130191494218,149.62930120438588,205.03894409782703,234.0558862387085,139.28399217511634,197.71492487901185,89.99428530047008,126.81074518941216,150.67247333537637,291.21596693573525,73.56996793943868,202.2148799337317,75.71847692788624,173.61961016141683,81.29491114334685,210.3210905240507,109.96993588021036,198.297458688594,12.8970098495483,18.3796291351318,15.2633609771729,3.9372801780700697,5.90479564666748,3.397167205810549,8.73497581481934,10.6501016616821,9.2424430847168,-18.1615295410156,-20.2111110687256,-18.438419342041,-12.7740421295166,-6.54995632171631,-11.8513212203979,-9.04565906524658,-8.27686882019043,-14.865757942199702,0
244.21720020617104,143.916443539328,198.39384960826845,87.94975653523568,237.73408658990928,109.38101034173556,156.59705571440654,97.64912026539092,231.78773805331363,126.70483638135605,215.63669098455176,131.73007132291826,124.60309847617914,123.4229790970218,196.95528543685185,164.5359368653542,141.94244645669366,242.6611627351459,19.8086528778076,17.2347221374512,21.0925312042236,16.0036029815674,13.6199808120728,15.1244134902954,11.1915788650513,13.836786270141598,12.6524868011475,-6.93071126937866,-5.99789047241211,-8.81980323791504,-11.1240530014038,-10.0952997207642,-3.46000051498413,-5.57105398178101,-6.9478931427002,-1.73311829566956,0
55.497592055941325,29.304597350264416,314.9790784861035,176.18302434667316,77.30212079070176,33.633143974393185,52.74223232437497,19.47652239506061,183.7105739877856,98.84611658757996,55.98522798792915,21.52779686634518,99.68702849464816,133.1643500686869,208.674583696812,171.74891093921923,60.49660324191784,53.68931150044017,19.2830867767334,20.7338104248047,21.4049282073975,14.865491867065398,18.611457824707,13.6525554656982,14.521800041198698,16.7491340637207,5.9011926651001,-20.4820404052734,-20.3109016418457,-20.3342571258545,-9.78874588012695,-10.0365295410156,-11.1010723114014,-3.10070085525513,-2.72427868843079,-4.42800045013428,1
134.4122956363151,137.68285479818715,72.46806866343857,84.1916821829299,67.71324126136821,108.37783585778875,156.72921579319612,124.83191792325135,144.9678810886886,148.50509459315444,94.18380037365448,93.78123774290708,122.55315156309577,213.69567966449856,149.9555783394505,193.72587785491055,119.66125109981384,176.49681912172173,13.576492309570302,9.96492385864258,7.681931495666501,5.64352369308472,2.03318500518799,0.559980988502502,8.86444282531738,6.53865194320679,8.20621395111084,-19.3803672790527,-13.2481651306152,-11.7392482757568,-13.477349281311,-9.93850517272949,-5.26882982254028,-9.17669868469238,-7.806558132171629,-5.17625141143799,1
230.1764325991853,181.4413752180016,130.17864983520826,98.1194933195116,168.421421058826,118.1624473477768,277.94116785957686,184.62522928625089,362.0903160013954,159.82219034207515,284.4017353595936,112.85346232029582,159.05300483617782,206.2248710771664,171.4163278391011,147.04823022476597,178.6243625577004,96.41161785638003,11.630467414856,14.0558185577393,18.1971435546875,11.0515193939209,12.2301797866821,14.007596969604498,7.19196081161499,13.1804714202881,12.2685089111328,-10.2080125808716,-11.9025106430054,-11.5224647521973,-3.5509290695190403,-5.81951141357422,-2.01804733276367,-1.53545427322388,-6.51341247558594,-3.7029092311859104,1
242.30853843963345,207.6907920078632,199.363446782312,150.2895088056146,219.8256065033448,140.99179377329858,161.2620864482207,219.457986887898,205.5020357937077,237.17898480620468,210.61728010878,229.10655754578065,143.6132476123313,299.7723921364028,75.03090426202562,173.78330283483643,56.25433857203527,183.18083348666696,13.0287561416626,12.8192558288574,14.898983001709002,6.17271614074707,10.3568964004517,10.0376253128052,3.28166699409485,3.19253349304199,8.31445217132568,-7.19123840332031,-5.01394701004028,-3.98671555519104,-8.43595886230469,-5.38812923431396,-2.6569983959198,-2.74044013023376,-4.27144432067871,-6.38081789016724,1
127.40970968860778,121.5074421631198,134.1023240668846,106.75952207069798,74.44902598386848,68.33763714339673,193.55610001576983,118.89285469394112,117.84298912572471,80.19896335997946,195.8288942662138,155.38247439095107,76.23805428988766,87.98346917310134,91.54231287124988,76.81998164186157,104.26882722433908,122.8479922190082,12.0097227096558,9.03217697143555,10.531834602356,7.98433446884155,6.57085466384888,2.49330711364746,10.0381345748901,6.09812307357788,8.92851066589355,-10.5346250534058,-11.6858139038086,-12.143837928772,-11.8850355148315,-11.5166435241699,-8.56955146789551,-10.4617128372192,-5.69200038909912,-6.21880722045898,1
257.0484041398704,83.34950630238791,237.37223810402944,69.14259100109419,140.31389502894302,50.23557392746209,240.7142975746084,130.08078996454597,219.85387859948776,111.77658444558962,220.16462786264745,113.6837686024252,168.38815210827164,222.66682991463156,134.15894470897257,148.7011294861367,157.30810286110002,268.63592267606634,9.37572574615479,9.26395702362061,9.34156703948975,4.52630615234375,5.89234399795532,14.6769142150879,10.1523160934448,10.786075592041,10.2179021835327,-1.7043519020080595,-1.62854790687561,-6.975756645202639,-1.58763563632965,-0.344004690647125,-6.93576049804688,-4.8358325958252,-2.90398573875427,-0.498228311538696,1
113.55693107114872,105.44612639692347,63.50337597632318,43.56855870655605,45.15312344183141,44.10502681414671,90.43220330120654,96.84705587538268,118.85381721787174,118.6528442945794,120.70436082520058,105.10696438388166,119.84675822303534,170.08758162935857,139.39198399716906,168.42489111479935,155.76198314136107,182.19158407437337,17.8805122375488,10.5033874511719,10.9192180633545,14.4692907333374,9.38403701782227,7.41817092895508,10.2085428237915,7.52815103530884,5.10422039031982,-20.2601070404053,-16.3371524810791,-15.216091156005898,-24.7084083557129,-17.273250579834,-14.8900585174561,-13.4981327056885,-10.4367685317993,-7.86925792694092,1
153.17399066751574,115.34931688874536,210.3411413735944,230.8933302730141,114.25610568385387,227.30442704974715,107.03029767879625,64.55202950093708,137.82697985659428,65.90704759622948,207.18895417756892,186.54338717335227,64.74675408595981,46.32051124182035,78.27250429999684,80.91644946644803,89.79877378012864,129.9592150628199,23.5371322631836,23.2774982452393,23.4156169891357,16.1010284423828,15.0229940414429,14.955309867858896,6.37886762619019,6.54146480560303,8.62008571624756,-12.0633010864258,-16.5350914001465,-17.0194225311279,-5.90940046310425,-4.63141775131226,-8.98623752593994,-4.5720796585083,-3.39857697486877,0.365395069122314,0
69.72008258474425,184.93843055441425,93.5051726690022,175.8457770641837,105.46512183504268,178.20687500030166,131.1039955298223,247.09214176558007,154.28112379618585,257.5136606284132,147.2348405630082,233.8892372619332,157.3312034800834,316.0757987704396,109.8002939925654,217.42865859683477,137.3882526331491,217.2047262932978,22.517692565918,23.500904083252,22.5981254577637,25.5541477203369,25.4525260925293,21.9282112121582,22.7011833190918,26.932579040527298,20.8489265441895,-7.3051457405090305,-12.9995670318604,-11.6967401504517,-8.53377723693848,-7.2638144493103,-8.3717679977417,-4.42125558853149,-5.81923294067383,-2.00336813926697,1
218.9768962280405,94.3491020787701,216.82036320835124,94.34870048677908,196.47589114432543,79.86731039111756,247.90500021987103,139.81094637298497,340.1006092137732,174.15486299784192,280.4310903770201,127.2169828975964,140.1672702005729,158.3938366844134,173.35861774207905,166.4620351117612,170.14459417953825,201.7747852736373,18.2378520965576,22.2723236083984,24.9726295471191,13.8218564987183,14.164268493652298,18.4428958892822,11.917576789856,12.1900215148926,14.675649642944302,-10.0459051132202,-17.5437545776367,-18.3659439086914,-13.0665760040283,-15.628829956054698,-17.2819690704346,-8.87984085083008,-11.1620769500732,-11.7629556655884,1
92.7949754026956,105.60409190977936,110.73352775021291,151.7005813100193,78.4346992192336,84.51330021161432,87.54346494488682,167.06474929275169,92.98426547026529,168.5625211403707,138.21769792159034,142.74437837191482,37.50956217408876,160.06541248887754,40.14054355184423,125.48699118262482,54.60705307425168,119.96784577199831,14.1235389709473,14.966232299804698,16.9252071380615,8.22852611541748,9.03192329406738,9.86357021331787,6.16637992858887,9.91180896759033,5.93712329864502,-16.3651103973389,-8.91115951538086,-11.5730361938477,-12.9048728942871,-8.21200084686279,-6.13525485992432,-2.46176886558533,-0.199738740921021,-1.6409869194030802,1
