F3_t,F3_a,Fz_t,Fz_a,F4_t,F4_a,C3_t,C3_a,Cz_t,Cz_a,C4_t,C4_a,P3_t,P3_a,Pz_t,Pz_a,P4_t,P4_a,F3_P2,Fz_P2,F4_P2,C3_P2,Cz_P2,C4_P2,P3_P2,Pz_P2,P4_P2,F3_N2,Fz_N2,F4_N2,C3_N2,Cz_N2,C4_N2,P3_N2,Pz_N2,P4_N2,label
35.62177224631674,26.645255979676943,231.94309030858645,80.9906934688421,233.14997239520935,85.60476853879958,57.187488881130335,35.30287904653321,266.8596403498006,147.76886687968874,221.29067125825364,115.07104644949072,79.49036632833392,107.22943003051311,139.76924742269546,122.28182810435372,181.0346211833128,121.77353867704429,24.2291431427002,8.46765518188477,14.7849712371826,9.65773868560791,6.749351978302,16.9190216064453,7.06164932250977,4.98927974700928,4.42003679275513,-29.133674621582,-12.2648868560791,-9.13996410369873,-12.3104982376099,-17.7007350921631,-18.6927623748779,-10.7674160003662,-13.8692083358765,-9.65146064758301,0
60.5154796075636,79.91344214003519,177.13611878294563,84.86788986654884,151.5110482138231,86.09820908634426,169.44164905383784,187.2254568195397,317.94070137911984,213.15333853922047,203.4937618333668,135.82622873752123,155.64274921678444,253.5677355635829,150.034347260507,225.88274229215597,167.15341857546667,259.05868108391445,19.498176574707,9.60440444946289,9.17040538787842,6.36194753646851,6.668674945831301,10.2702131271362,6.40644693374634,8.67934226989746,8.66379547119141,-12.4682922363281,-13.4296731948853,-12.9791603088379,-5.35780954360962,-10.4676561355591,-9.3407564163208,-1.5622171163559,-6.04135942459106,-8.38860416412354,1
23.38621969057251,11.638430512202667,88.25562978339242,49.88178052384169,47.7744014341109,30.43828440247748,19.280840421398803,6.402010798315141,45.81472538091512,16.974549628991582,19.17623113016376,7.912647370624227,23.3339612292636,17.395002464466373,25.94055425216964,14.72292119423305,19.93782294478933,11.459250720255357,23.3508377075195,15.0076370239258,14.6075620651245,12.6124591827393,13.7702112197876,11.6423645019531,4.71161985397339,6.03428173065186,6.18837833404541,-17.8096485137939,-12.189980506897,-18.9711380004883,-11.022759437561,-7.10369300842285,-14.745943069458002,-6.29095411300659,-8.4437141418457,-13.8250207901001,0
133.4470989406787,210.1389989258519,299.3299315020531,376.8968945152072,148.56146671904537,320.16045869507565,99.40011848981734,281.67490428018186,132.526941457656,373.22700048581646,135.44229985415546,337.49926358045457,60.830890590165446,623.3584004568341,95.64363320533585,553.81933258498,115.38959927821416,218.36328374510236,15.778314590454098,10.6356439590454,12.0097761154175,12.592827796936,10.9772396087646,10.138334274292,8.32895755767822,5.27537250518799,7.352025985717771,-23.7381496429443,-17.249828338623,-12.9069232940674,-15.993782043457,-8.49217891693115,-11.7918310165405,-10.2122926712036,-3.2860908508300795,-2.95465993881226,1
46.37400376976709,231.2668155805236,197.4296208441464,200.38350026592087,92.22799302106807,81.50201421215513,85.64751877081297,194.58631679915268,168.95189928672752,326.65388646763097,79.34273130077442,155.26677158225723,50.6500021437755,227.7939231471389,146.17173246867904,348.1810779576128,138.95913666537444,294.3347324989495,18.4532127380371,12.6728916168213,16.1094417572021,9.78052139282227,6.37701606750488,7.7086353302002,4.7625904083252,6.518835067749021,7.077434062957761,-16.2479476928711,-9.83407688140869,-15.805973052978498,-10.0766124725342,-7.62045812606812,-7.430140972137449,-8.06719875335693,-9.85477066040039,-9.82143115997314,0
71.17710161774598,192.49395071126156,128.2843113811785,301.29131288591617,150.39724213047705,312.629295870882,93.70999594984332,222.1619372451964,140.26098621293585,395.0285555670134,134.45199133324053,359.81024215630765,83.1297867002743,294.5152730272852,98.45882984276892,329.2557835395729,74.0448503543404,257.7694300661897,25.611251831054695,15.792094230651902,21.5126495361328,2.88373422622681,7.165207862854001,12.1281652450562,5.42209196090698,5.83199596405029,6.788795471191409,-19.7503204345703,-17.7136192321777,-22.5512142181396,-4.70513105392456,-8.00233840942383,-12.61008644104,-1.01557731628418,-2.97408032417297,-2.05433893203735,1
20.46926356858588,99.72304633085304,188.91007102594725,230.03180439104773,111.87701623693948,152.2535522724146,51.23666446482693,168.0982567728826,175.11800001910078,330.51055777142926,152.25477168304903,324.1667784581164,59.79001205745774,514.2755747367665,93.9897523066721,507.8967330439549,104.47256379617356,396.6173410932221,18.8177433013916,11.6020631790161,8.12007617950439,6.08176422119141,2.87798571586609,2.31964755058289,6.73667621612549,4.0933985710144,3.5738148689270006,-20.2962627410889,-5.18886470794678,-9.18398952484131,-13.4219388961792,-8.92343902587891,-12.0108528137207,-5.76372814178467,-7.4873733520507795,-7.928969383239749,1
43.13172194015054,85.78283728568937,76.72127827190953,153.4068434286511,63.44076298922482,108.23814208805209,96.00908432276394,391.10174645433887,136.15674517810638,409.0652386621552,112.28216899886054,432.9241610572401,59.48061266132553,338.6750424100896,129.51698342050383,746.9256559308654,137.1440417185904,610.2294920987096,25.9470767974854,10.2567329406738,6.88375377655029,11.7523021697998,10.5999355316162,10.4697980880737,6.46734142303467,10.6142272949219,10.058313369751,-21.6000175476074,-13.5620594024658,-13.6349945068359,-9.1820125579834,-10.019947052002,-8.60918045043945,-6.81872034072876,-8.75388622283936,-8.93797874450684,1
118.95045998824274,114.52788027317254,123.01370343794616,88.2801994556737,88.10921249666796,58.4200575762449,117.01755466547284,129.32142156892343,190.44499897732655,238.8630041380362,132.5193373047178,151.3712718793019,75.35873481884637,238.5043465080644,82.13921226222587,223.91852222793477,93.93942572888103,169.31477784636306,15.0447807312012,23.3498573303223,23.4858913421631,13.152340888977102,14.805606842040998,17.2045364379883,11.2517976760864,10.7245969772339,10.6778621673584,-30.7433738708496,-40.3951072692871,-39.4566383361816,-17.8635482788086,-15.3996534347534,-19.2387809753418,-10.0472087860107,-12.3590431213379,-10.302059173584,0
21.753031647604125,14.829411920328882,34.15377022593504,36.16426742695704,25.077952871550984,34.22478339043811,74.49446357552011,159.3865285220234,132.1683284026176,305.2850131358409,90.62046467149749,347.93455542437977,62.908506923074704,642.923438209435,80.20887350892349,635.4777802542897,102.84291842769156,733.6323961654216,10.4054145812988,12.1963224411011,12.1739168167114,9.96996879577637,13.6266870498657,4.98181772232056,9.29049301147461,11.0806093215942,4.08568906784058,-11.6353998184204,-13.4355583190918,-13.5038251876831,-4.29343366622925,-10.406530380249,-12.6908359527588,-2.24555087089539,-3.660208463668821,-5.13367319107056,1
68.04266062661102,118.58065808594137,65.45733564987071,154.24051840511936,60.24593823480562,156.68322051783085,54.96164628275933,140.75223372677684,69.43800416795064,186.88009740446785,90.90311226377652,234.29984935359693,19.971741794622524,160.0388556030413,48.05362893833264,227.6994594864285,109.36813720526284,284.86530463812835,13.6901082992554,12.6360750198364,12.9557685852051,6.08993721008301,13.494514465332,14.6573886871338,10.0914497375488,4.70777273178101,8.04961681365967,-12.2107715606689,-8.04139995574951,-4.61723041534424,-8.43059921264648,-10.6308422088623,-11.0436153411865,-5.31606388092041,-12.4805574417114,-13.944694519043,1
78.56347517220964,144.37883780525,187.10269739821425,204.43409561043825,78.37234486631381,77.84021315808081,127.16985847270288,178.84616060418608,160.9194542989262,262.76910723618045,86.32035034618391,140.80338831443947,69.35326680024978,279.33246876375694,76.48246968343189,279.54403652777705,123.8166968718084,328.0428667534612,14.2843961715698,9.21353340148926,11.8309803009033,3.80909752845764,3.01891994476318,4.45650196075439,4.77568435668945,6.60899496078491,8.31653118133545,-17.9629325866699,-4.73062038421631,-8.78414630889893,-7.569299697875979,-6.55492305755615,-6.81076240539551,-9.3209924697876,-10.9299430847168,-9.67091274261475,1
32.56113032758731,38.65192647382182,100.45490512904324,193.02258664185655,72.40811451686379,91.80642606642913,57.568324969196645,105.8463293625452,177.88652898457775,337.5493360643193,43.46892685647551,46.28076028756669,73.38469603071078,334.6975634486423,62.535995249264914,308.7938058691228,45.401677752985606,102.85331440730614,22.8855590820312,10.4848804473877,11.8483657836914,13.7896842956543,15.0068664550781,14.3656892776489,10.7603731155396,12.3301239013672,12.3733463287354,-15.994172096252402,-9.73122024536133,-16.0057220458984,-7.47167587280273,-12.4706773757935,-13.9167881011963,-1.8666591644287105,-3.05060076713562,-5.18483734130859,0
13.375139987530138,11.13103560650896,348.7319265272589,313.4909345340926,238.99196810348943,293.788689864656,21.2046983545108,32.97123153157378,126.98077940624304,267.257835840939,112.90574223862502,205.63605550393308,69.72719339672707,462.4175343951693,128.08387757436756,635.9749649760128,157.604266600859,1091.226223658207,21.1525020599365,13.7705125808716,14.792833328247102,11.9819526672363,8.92634296417236,12.4192876815796,11.5942306518555,11.2302942276001,6.55451822280884,-10.427357673645,-11.0606412887573,-13.769419670105,-8.15790271759033,-9.89335823059082,-13.00168800354,-3.81046462059021,-8.62167167663574,-7.8939318656921404,0
59.54998125067363,66.08571688521371,283.13122527768206,223.9909811110737,331.4933582328393,259.48810334748373,273.09550653571694,291.8260502863816,280.6348063801422,275.5800012702404,184.0464908668418,229.74260848705543,158.01130637251083,405.7911487021464,171.60823286114524,251.2833033864765,152.34578154622653,334.3449575404832,12.6861991882324,8.5093936920166,10.4815549850464,9.95990657806396,9.27519512176514,7.45383501052856,7.85216426849365,4.93684387207031,9.08906555175781,-10.1570777893066,-15.538391113281198,-20.6034355163574,-7.921702384948729,-10.1161584854126,-12.1129922866821,-2.83022046089172,-9.66093158721924,-10.2222023010254,1
108.11175942319583,183.6015902757278,193.0137491613573,306.70147027255643,193.79112107075235,219.05453322773175,122.20142197850524,265.6768020176431,127.04121728496354,252.26084206564315,210.3497880029153,360.78825622720825,43.35259958525527,184.77598858549064,80.83669165148959,195.4496450627284,130.0745599021837,342.9546584962507,11.5286283493042,2.27586698532104,6.36652278900146,5.86640501022339,3.8401818275451705,9.82290267944336,2.88095235824585,2.39236402511597,4.26443576812744,-11.9788980484009,-2.36090660095215,-3.9603977203369096,-4.82493495941162,-2.21051502227783,-3.5596494674682604,-4.59989166259766,-1.30911803245544,-1.56996917724609,1
16.891121758600942,33.743790826475745,251.29704376521332,259.5292099048761,274.88376518013735,246.98631840665195,54.735477584915536,84.11615425761859,430.064272433779,377.4190580141912,111.66126439711586,122.96328198401196,105.13023124636211,528.974756646979,160.3112268557121,363.67640647398326,88.14627725087838,209.9493009704053,25.4170227050781,14.5287227630615,16.6485805511475,6.0235424041748,6.39376306533813,8.59590721130371,3.58184814453125,2.17453694343567,7.2774453163147,-14.396222114563,-14.251111984252898,-13.8163137435913,-6.77239465713501,-10.4995250701904,-19.678653717041,-4.14676666259766,-11.4702730178833,-11.6060476303101,0
93.29547766254508,265.9656311625231,161.89257516271658,391.0382749274432,126.45527345707488,241.5554495999837,71.93625078844894,191.35939003806195,139.87106178261462,344.1457775885943,112.005581815926,321.3332832389702,49.75746070674352,197.40997845862185,103.90844960651356,233.14127443772745,99.24906825014988,220.8771138856228,18.5725269317627,14.2514886856079,14.4049768447876,5.84050703048706,10.7324895858765,12.7158346176147,8.30951118469238,8.50626373291016,10.2331876754761,-14.2385597229004,-15.112927436828604,-17.0551509857178,-7.47901916503906,-13.5331239700317,-17.6408252716064,-2.37859535217285,-8.23674583435059,-9.38551902770996,0
76.5590400910641,104.9071701150616,326.91013645984054,261.2162438305823,295.4781733402445,254.05532718365575,137.82473489126767,182.0534582421325,224.15768897424692,219.67302776106945,204.53323987591185,201.75226669833648,68.068391110991,582.4079544803011,139.18479926549753,378.12163873569983,80.3052050777285,268.7801124347691,19.2358303070068,13.805294990539602,11.2761001586914,8.53587627410889,7.207352638244631,8.14880657196045,7.35725402832031,8.41447448730469,6.983642578125,-18.9716491699219,-7.421002864837649,-6.8865122795105,-12.0206356048584,-6.16102600097656,-6.29877185821533,-4.274817943573,-3.51465487480164,-2.5267162322998,0
98.48169719101452,108.3340321594494,160.77380710547635,202.4145205659577,203.74161973626505,325.4954802623475,119.06243337391612,101.3771058852575,287.2736666509061,226.8988715209139,234.0782052654624,283.0870407958048,50.420129196925615,414.0170717476008,118.71844394156444,407.59030199488905,96.49115091847035,321.4077751794209,8.06539726257324,11.459792137146,10.5712203979492,9.50827598571777,11.1072454452515,10.1293296813965,9.5143928527832,10.8375196456909,9.20329570770264,-13.6566390991211,-10.7702865600586,-15.3235569000244,-6.66725635528564,-7.64015531539917,-10.6400966644287,-11.4458131790161,-13.5486764907837,-17.0061988830566,0
137.8609258997621,76.0298162953552,138.078274614178,56.67754170319887,104.39481113238324,70.37203685717857,174.7164072215808,152.49675584414402,394.9950417876444,165.1204341103841,158.0520559964308,140.13626834152726,85.77609831623525,279.12631587925847,237.0164921489625,174.96096161003578,218.71565146017403,236.1786152251106,16.1160449981689,18.4210605621338,21.0490245819092,10.3229579925537,16.1584377288818,17.2881813049316,8.81086730957031,6.742262840270999,6.542246818542479,-14.839038848877,-17.3925876617432,-15.960591316223098,-11.2157955169678,-10.2196559906006,-8.73984622955322,-18.2414875030518,-15.1069192886353,-8.33830261230469,1
132.98208254639584,159.49479814454068,223.0036434792569,193.12086253826837,334.7361446267113,246.3062842143004,165.6460336151552,163.8969599203966,188.64275158164497,125.4020317384647,256.2763154572487,193.8712256654964,96.26485608147728,333.75727170811183,208.05900854915205,262.8149909506726,175.99335756977231,206.70131882815056,8.2330436706543,10.4872922897339,13.985567092895502,14.1500473022461,12.3342313766479,8.8568172454834,20.6905822753906,11.7599925994873,7.89445543289185,-11.6589002609253,-11.3170394897461,-11.3567008972168,-5.73702907562256,-4.21710443496704,-8.44340515136719,-11.0058536529541,-9.17261791229248,-5.66924095153809,1
179.0916241293605,181.47416515513893,588.5972005538865,288.6864401771563,290.36345271653136,155.50962466784438,102.30931357179796,142.0985882888107,192.79092975622947,193.71587846441847,181.95741320477345,208.02780975815645,86.40991704451305,458.846635980316,123.13120363996862,192.6376735086409,113.08060096924956,155.047602648704,7.40970182418823,8.01380729675293,6.23155736923218,6.40738534927368,9.17216682434082,6.28699111938477,9.39687824249268,10.8360328674316,8.55806255340576,-12.5685338973999,-10.2456531524658,-17.2029590606689,-5.68288564682007,-12.7261333465576,-11.9095249176025,-9.97335147857666,-13.2672634124756,-13.8580436706543,0
51.91630410554389,73.90928453789292,330.81566913316163,373.9402705790069,207.20847582556863,284.1583386643691,40.16507310960096,123.06207427676586,114.44637659029672,364.3787900794554,44.15925602115151,120.55421415343112,44.99138901027759,540.4423933264899,52.58954523951285,437.2855447231477,68.72215948385286,346.350547433828,11.1866397857666,9.33956146240234,14.403244972229,9.76036643981934,10.2886037826538,13.0867776870728,10.8212966918945,11.0361385345459,8.85658073425293,-14.838806152343802,-11.7059020996094,-12.7964344024658,-9.93605422973633,-11.2611980438232,-8.21046733856201,-8.21951484680176,-11.6065692901611,-7.13155269622803,1
197.00616632592508,203.2923983457694,193.02270788574785,162.030148625438,135.04335503293484,155.37387604730208,219.68140487731617,174.79039782236225,216.2517541098497,216.86884968739017,193.39371492509363,200.06325232629848,127.63534220168032,364.5502599297988,100.5663822313098,207.57618494109985,82.57259443874082,191.76626337169708,10.1126270294189,8.44700050354004,5.97458553314209,4.60378646850586,7.966899394989011,6.79350519180298,6.26347827911377,5.45701932907104,2.39362931251526,-8.26784038543701,-5.24756765365601,-4.6813907623291,-8.55944442749023,-10.0444202423096,-7.62289905548096,-12.7694416046143,-11.7529106140137,-7.55612373352051,0
120.94597722289446,155.82215712502406,212.59407100610008,241.9302972134525,156.66148086936747,183.949436875952,97.21874242966408,76.64484917424193,183.3753195043069,195.2787434904761,177.46575825843345,292.11250522164414,45.2720713534116,326.02032653054334,118.72156125138228,194.4869362566093,77.86840684830689,212.08711625606225,5.9885892868042,6.00237560272217,5.13563203811646,5.563645362854,4.82632780075073,4.58563184738159,7.62242746353149,4.90066957473755,4.60585975646973,-2.50011849403381,-7.98171281814575,-7.944111347198489,-4.0407862663269,-7.04495573043823,-10.2960147857666,-8.73926544189453,-3.61765098571777,-3.40566825866699,0
