F3_t,F3_a,Fz_t,Fz_a,F4_t,F4_a,C3_t,C3_a,Cz_t,Cz_a,C4_t,C4_a,P3_t,P3_a,Pz_t,Pz_a,P4_t,P4_a,F3_P2,Fz_P2,F4_P2,C3_P2,Cz_P2,C4_P2,P3_P2,Pz_P2,P4_P2,F3_N2,Fz_N2,F4_N2,C3_N2,Cz_N2,C4_N2,P3_N2,Pz_N2,P4_N2,label
235.49301150938737,148.88735099361824,187.5004203437077,117.221259947334,281.43453177442404,180.3383769940945,235.4424674498976,133.81885795806335,263.3975743503499,120.62820533832831,276.1501800259268,127.87818650694555,290.87199609184955,175.36909397771294,382.85944767023904,181.28772839966305,248.48121453994924,126.07902086105608,10.3580856323242,15.5442695617676,10.3731117248535,4.36853647232056,9.12780380249023,5.78682518005371,3.04172134399414,4.33877420425415,3.70047807693481,-10.6969347000122,-15.1934337615967,-14.8658361434937,-10.0925855636597,-14.219676017761198,-12.2485198974609,-2.99246096611023,-6.504376888275149,-4.86965751647949,0
226.90405851711057,140.33466262023563,286.75472652686267,140.09483541644707,168.74966381662097,108.9059547149046,185.88670029470572,100.68929323034018,227.86339681021417,104.54357042702834,290.2664745592747,151.51521750354917,120.25689920008594,133.1436625734093,204.4152239520772,141.62950859975558,210.15667445280064,116.31824386098852,9.61080741882324,11.9668464660645,12.3996868133545,8.3534688949585,11.5567846298218,11.6835689544678,6.47305917739868,11.4335660934448,12.3969974517822,-12.2774753570557,-13.4897384643555,-10.9601745605469,-17.3608245849609,-15.3663921356201,-9.06245994567871,-11.2508344650269,-10.2437314987183,-4.6148567199707,0
137.5386628875141,94.7860758276786,266.2865817712383,154.4211538803446,213.1670602206787,114.66960207928764,153.56343821448064,172.8130544709086,148.67513603925158,113.13191041516454,187.77376155574663,112.55893876247796,102.1803005890242,219.1822407307333,69.75612677440536,144.6131599030482,100.79897577809956,120.86768085898125,18.0185928344727,17.3102035522461,10.4966907501221,10.1375398635864,9.24658966064453,7.03971910476685,8.11688899993896,3.65116834640503,5.45621109008789,-11.6423540115356,-9.89319229125977,-5.56093120574951,-8.54494953155518,-11.8976755142212,-9.042311668396,-13.6680183410645,-15.894274711608896,-13.5821228027344,0
214.63333473396415,152.8878234834491,215.8288348907069,151.69052077130354,227.73931676783903,179.23408647696758,129.00622969645508,117.97868110355822,155.5902291189392,158.6470282872066,234.1711104007102,208.20890076337932,86.68688577048071,193.09999911713763,143.48953130751843,249.94410887453347,155.0078571150496,184.22467687673372,13.3714170455933,12.4198131561279,11.6173400878906,6.58007860183716,8.28446483612061,11.8816385269165,22.4875602722168,15.0918779373169,13.1884765625,-12.844598770141598,-18.1993312835693,-20.7718524932861,-11.3979969024658,-18.925931930542,-18.8036289215088,-8.86802959442139,-19.5185947418213,-18.2129516601562,1
134.89548999379778,58.80722235893467,237.83779632716264,118.65609511419034,229.11208796582696,143.4910508193374,309.4151690295966,139.49125695100727,296.7300532311435,91.57643062879696,312.8408788243473,122.2876091279526,143.07134636695568,186.99636407005656,184.0181548320488,109.72319682608726,182.1610646809117,92.49433006189096,14.961097717285202,11.8673524856567,9.50306510925293,9.14465999603271,10.0863590240479,9.97309684753418,3.72063302993774,4.91143369674683,5.57762765884399,-14.362676620483402,-19.8491134643555,-17.7696475982666,-18.9582920074463,-22.7582492828369,-19.507266998291,-10.2756452560425,-14.807336807251,-12.4228467941284,0
237.521700209406,214.70343502897867,250.8925906784877,218.95693814297744,227.3192484733828,223.7297067790532,197.75612250984827,202.12642640849788,196.89777974158943,196.95996862240332,235.78766719031933,273.37181741441617,220.7635095032626,280.2004340069745,210.3678168194023,235.25120747163072,126.7540725797034,176.4334744437648,19.1878871917725,15.0150165557861,11.2199354171753,14.3863697052002,13.422064781189,7.368344783782961,3.76991510391235,7.74289989471436,7.000909328460691,-15.4440870285034,-17.2307472229004,-12.584698677063,-16.1575736999512,-14.2348489761353,-9.31872844696045,-6.98370361328125,-5.10265064239502,-1.36121511459351,0
225.25460879872708,157.21937837018518,240.3796761769563,101.91558023375596,241.87683758136257,138.15059234510653,173.6622547412839,102.54061025510926,237.6346917919872,98.85026869518272,195.3932256791078,99.78248481541712,62.03235722135121,63.9060230069644,76.20824918035503,65.02075486292337,90.58305408072702,101.60734056206267,10.1360950469971,8.83837604522705,8.94813632965088,8.56415462493896,5.62825298309326,8.28133106231689,11.3466663360596,6.44790935516357,5.26226329803467,-13.0658760070801,-14.1492738723755,-15.4676361083984,-6.950501441955569,-9.87294292449951,-12.0385866165161,-1.53765475749969,-3.09454917907715,-6.38926887512207,1
111.1937835640896,78.87376009268955,111.45030494741508,58.57078916161893,158.3950226268587,97.7022219478424,116.68855431054337,75.53902309570798,135.22375285792307,79.73451404493282,136.4500963128543,90.41484737765752,121.34744100080296,120.54610359975877,138.76919815507142,146.36485237998244,138.3254405448526,141.68329255814922,12.7651624679565,13.4442577362061,14.3958911895752,5.89441585540771,8.69666290283203,12.7882204055786,3.72350478172302,3.68762683868408,7.3942928314209,-5.04712629318237,-11.2814159393311,-9.89392280578613,-4.13837146759033,-9.00211906433105,-7.985108375549319,-0.755889177322388,-2.03523564338684,-3.51251101493835,0
138.9626820503673,143.1102491064302,145.17681707650206,132.6328253017389,134.1142336539478,120.05535009673795,377.0536649842359,267.6370909911161,258.6522257349837,213.3330567821175,279.7699696337465,247.451381404254,76.77979216437143,131.77121982177388,60.70341539552346,111.03411474547435,100.12209763606728,141.61062396821313,10.6476411819458,12.6547365188599,13.0863122940063,6.56179523468018,9.05161380767822,8.30176258087158,5.01171207427979,8.1182918548584,5.77091789245605,-9.0339298248291,-7.216987609863279,-6.87424755096436,-5.38808441162109,-6.78495502471924,-4.68820095062256,-1.20757222175598,-0.8100876808166501,-1.1759045124054,1
122.33968677366852,54.630877054469806,125.08833636259034,54.97541958361996,182.25365452627565,109.37502428198776,132.9523784865824,51.53150306115666,138.2102219137382,57.83427429797037,136.17508859514254,73.60622574408882,97.024261531657,74.05247238804574,136.26573963861114,112.7643568998108,133.78457304574584,138.1217883868831,8.45255851745605,9.48170471191406,8.8416862487793,1.98227286338806,3.5003538131713894,6.30234909057617,4.8093056678772,4.22299528121948,6.13173007965088,-4.25862312316895,-4.48891973495483,-4.34200191497803,-7.5778636932373,-8.50445747375488,-6.83014869689941,-3.2440216541290297,-5.29824590682983,-6.35696601867676,1
170.1757564358985,240.35192867877984,158.6569925762212,144.61115595447478,133.67328305326504,130.1106351272517,121.88325086250478,150.49378157776692,255.8158844506003,190.08621047791053,198.54176348602985,161.31576977273696,57.57550616918813,247.59416636673265,118.85616175367056,262.5904207589357,208.6034739716985,169.265583008731,15.5556964874268,13.3397359848022,15.1486005783081,13.2764616012573,11.9700231552124,8.15898704528809,14.3398694992065,12.5821142196655,8.58874130249023,-7.5457229614257795,-8.30079746246338,-8.95534133911133,-5.6070351600647,-10.8697471618652,-10.5458126068115,-4.85115814208984,-8.64554977416992,-9.17338275909424,1
111.73360035063146,121.65949862512248,133.83667693594788,111.00582989934952,144.24813709392967,117.66010745886214,154.02833324503928,160.600741825752,203.25613860981903,167.65915035566834,216.7522659938674,173.7976094466326,110.10379078167568,168.36771103545726,145.03244419369338,200.13454740683844,156.44458841199767,168.0440651815288,11.7883529663086,14.288845062255898,13.784366607665998,8.55815696716309,11.0242767333984,10.1898651123047,10.4479885101318,11.8870334625244,9.1380500793457,-15.0906620025635,-16.1451435089111,-15.7413377761841,-13.389609336853002,-14.9429368972778,-16.6441402435303,-6.27683687210083,-9.71755504608154,-9.96021938323975,0
136.48798488323726,74.87735882707827,156.23340452633494,64.60156619826914,222.35036124731067,124.05865647594116,96.13274176222592,65.84114328736267,90.61981970995946,68.12509963651557,110.67442593792772,115.0402327272038,104.020147252541,121.6221150705311,136.2943572114064,204.00959343451208,116.5585516707083,208.8740473541012,6.30221366882324,6.701306343078611,5.78477478027344,6.33650684356689,4.91020536422729,3.17796587944031,11.8089790344238,15.9950981140137,10.0289134979248,-8.93783092498779,-10.6957445144653,-7.023799419403079,-5.56491756439209,-6.11066341400146,-2.67970204353333,-2.7652792930603,-4.34207534790039,-3.36011290550232,1
118.8482133651441,82.70029942968219,271.99278537781026,129.32404203313797,222.4199967537228,141.006820927541,215.3250913499664,81.95856775373933,147.83614176310024,72.74224265652215,141.98701135068967,92.90033190931112,119.2541391591457,112.10410594705414,168.1135387949377,181.21054478435624,177.9828026937443,183.16125419302944,12.4017744064331,13.473394393920902,10.0628232955933,10.7104749679565,8.73059272766113,12.2663745880127,8.45047569274902,9.02890777587891,10.7176084518433,-11.362865447998,-14.3137998580933,-13.829477310180698,-10.0609292984009,-8.09775543212891,-6.62074565887451,-2.78174209594727,-5.0499119758606,-7.89860582351685,1
305.53542388767295,90.58451077196364,251.9859501788828,83.56714761294273,179.94240917067393,70.46987085290014,356.43411941532503,111.35321158230656,302.8558006855734,108.4047211159561,260.5622268847474,104.7211465528765,235.0372375789068,187.14319735422717,212.08229127065803,175.1734170748044,170.77695882285863,132.11933837082026,21.3427066802979,25.3417644500732,24.2610092163086,17.8855056762695,19.0069847106934,18.4824600219727,8.85516548156738,10.1252584457397,11.2976036071777,-2.3815655708313,-6.04332780838013,-8.55290699005127,-4.27805662155151,-0.948003888130188,-5.88672542572021,-1.6848441362381,-3.955532789230349,-2.11469602584839,0
171.11032228451882,164.88567699045504,143.67570904378442,128.94674104800313,135.28768689751195,170.01290745294472,211.8848138596303,199.8671486777073,255.9869963608729,245.3213045993405,184.11402360074263,207.9321080929434,134.07137074969611,200.06141785535783,124.79586546356492,156.54074844045422,106.9029715299374,134.29919920278175,10.2765970230103,11.4087991714478,8.97848415374756,10.297248840332,12.0077686309814,8.28518867492676,14.502366065979,12.0312271118164,8.08823013305664,-22.5044822692871,-27.40667343139649,-22.6489601135254,-9.50158214569092,-14.743379592895502,-14.072478294372598,-5.8888463973999,-9.16725444793701,-4.48533868789673,0
130.34985150215974,233.839011159568,167.80717917493445,252.2985255558731,152.45228574901574,228.38192115749453,183.95629432629295,290.02688865491547,162.8427648199562,251.1277392173155,167.68812648260635,288.0612336593874,127.98775198637148,266.1171725139811,231.51867165321744,382.8034542428184,239.61069115322647,284.91121746513,18.0356864929199,22.0006828308105,18.450798034668,12.2566289901733,16.2012367248535,16.7905502319336,11.5589475631714,10.9037609100342,13.0440454483032,-8.74120044708252,-9.00891876220703,-6.98735046386719,-8.1258544921875,-8.1990966796875,-8.63447189331055,-6.25789213180542,-6.565513610839841,-6.99493408203125,0
247.7601249872817,359.3102974795089,334.0094039391196,341.01963827294713,279.6070958576465,327.7035832383425,162.163975998274,281.822621506174,274.64265331363555,270.97239905198603,203.7856190718168,245.47915210825403,82.2047328205037,267.2890150846775,270.4892597205172,256.6921764914436,231.94095764621864,203.35758933808305,10.6792545318604,13.0530958175659,12.5770387649536,11.4412059783936,13.6010007858276,9.35333347320557,20.5654716491699,19.4128742218018,13.4417276382446,-14.3380565643311,-13.434667587280298,-11.4569816589355,-21.5762901306152,-23.2031059265137,-14.724596977233896,-20.652364730835,-26.1022911071777,-15.0986671447754,1
344.3263212433457,284.91504473579755,172.87706007880894,138.3742863717999,112.59006494392509,122.78922345025342,233.30622489027,169.89830526618584,234.70016712877143,194.26946296667077,253.2135709100772,227.880523675624,170.5734344988205,149.991517509882,198.72590984144372,149.75250146383326,219.2262954912825,160.87924229763868,11.9900503158569,16.4596176147461,18.5102157592773,17.0441493988037,18.9672203063965,19.5383949279785,14.9004983901978,16.1521911621094,18.7589378356934,-11.5186672210693,-13.5490837097168,-8.47030639648438,-6.474104881286619,-7.863766670227049,-7.730593204498289,-7.678901672363279,-8.08856773376465,-5.66300487518311,0
128.01037885752908,153.81625301330632,206.492796799722,225.73786026976947,208.4211229450254,259.710601741705,178.5825590100947,199.0926783876596,192.22997350160333,229.94766269847625,111.8111455907015,179.49832476100573,141.84853992672998,129.9755818026949,64.2950342449929,101.08269104404292,50.17184306390078,114.90283569362616,10.0899639129639,17.5190963745117,22.0222625732422,9.09700107574463,10.0518360137939,13.1282033920288,12.8022451400757,11.6712026596069,10.8484869003296,-10.8697834014893,-15.2693042755127,-14.704233169555698,-10.9477605819702,-16.0201358795166,-15.0965585708618,-7.85609245300293,-18.9506492614746,-13.9044933319092,1
301.7072318777824,184.26933691464896,325.83956947222595,140.06179031021074,225.1540602380818,120.79562005801112,171.59576181422412,149.61768917955453,110.38176816984708,116.93911156184822,125.4209840122089,138.3563066164258,92.032684896664,123.52024247220844,78.77731619498088,118.10973776643073,119.88951050738449,216.44205965480617,14.417068481445302,20.3171005249023,23.4548149108887,8.44106674194336,9.45582962036133,7.650735378265379,9.32060146331787,5.02623128890991,7.74846649169922,-5.69817733764648,-8.23752689361572,-10.6674480438232,-6.667108058929441,-6.540160179138181,-9.28867530822754,-3.82179594039917,-7.8358302116394,-10.9252471923828,0
240.3053375776603,95.64385221693956,272.8370301141813,103.75600659666829,283.2802237091871,121.71911374963312,229.6609411539252,121.8891365998964,239.61666050912825,141.47138084639008,236.8961238392223,150.9370672106002,111.08612221131612,87.2805089231754,144.9141959646037,115.78550862698808,181.03489464386905,125.11009405381104,17.4736557006836,22.765998840332,19.7535400390625,17.2208042144775,26.1770038604736,21.143575668335,14.5642862319946,19.6901187896729,11.8264875411987,-7.60366106033325,-13.0273361206055,-15.532701492309602,-5.0093879699707,-16.8419094085693,-15.3484191894531,-2.67151117324829,-7.30942058563232,-8.17091083526611,1
257.60113642016114,156.10863214709448,328.49378737440725,185.33532301464285,295.6501049942886,216.42638768462064,207.02379442666896,167.4138376370954,195.8401432771652,184.0083395252614,177.61578830818348,148.63802309437827,105.55709861486282,172.45184592014897,100.4086625021326,146.72639498833396,132.80323428688138,139.4972825679506,14.817476272583002,13.4776525497437,9.56349754333496,7.754515647888181,12.6342334747314,8.45838165283203,8.53384399414062,9.61475372314453,6.77159786224365,-24.384370803833,-20.6003170013428,-16.1882591247559,-6.51821756362915,-7.14246129989624,-9.59633445739746,-6.586826324462889,-9.8520565032959,-7.03297185897827,1
292.0168769977185,164.7413470074403,396.1210044512475,158.94393172388968,334.19434027788884,150.10976851733705,155.95263034638933,141.84761503787016,244.4654548352294,132.7959778636378,347.174324233706,191.0300430524101,192.14049734094584,331.5163804753589,115.22201874763418,181.5848695394864,195.2291353730608,244.1252076089116,9.46208095550537,12.4988012313843,12.938171386718802,8.50594329833984,12.7792282104492,12.399808883667,6.31404876708984,7.6639232635498,5.62530899047852,-13.6790628433228,-11.4348411560059,-10.5053730010986,-7.013223648071291,-7.12082195281982,-6.53182315826416,-9.03055763244629,-8.40598106384277,-5.55826377868652,1
204.30531012951369,170.4347441587164,245.83395602094257,165.68825934201237,320.4375856809941,244.52121840738457,192.5494929113613,180.25853442774763,255.51875367318627,171.8659407138637,292.60716665074773,179.82197959856848,182.75342342931137,213.87734040426167,257.3665947600235,200.4531219791797,257.2249719758264,140.6876854557928,17.1297397613525,13.9636268615723,9.06538772583008,18.2093391418457,16.2670745849609,11.0500822067261,9.43231201171875,8.16249752044678,4.04908084869385,-9.32994747161865,-12.590446472168,-11.0870304107666,-4.22213268280029,-6.63224649429321,-3.45109224319458,-4.81504964828491,-3.76618432998657,-7.409812927246091,1
144.97897252910386,110.074563261034,202.1118234581396,137.87635347213163,160.8686748613694,142.21002459601655,157.26520232133993,173.27915428279854,254.3741219728327,213.8352798925264,190.36202136848323,208.60336124997255,165.91169152857375,284.6984848522558,175.26675585542984,228.79641930750088,161.22755019102067,247.77842775044263,11.7828512191772,8.8400182723999,9.38394832611084,12.852837562561,11.021803855896,8.83151149749756,14.9656658172607,12.9594097137451,10.7003145217896,-21.2795696258545,-21.7647438049316,-15.6686496734619,-15.696681022644,-13.7778739929199,-9.10795211791992,-5.62937164306641,-7.0484919548034695,-7.00671529769897,1
329.6525430721005,133.23506513588558,346.32306759927707,126.70150212253246,242.67450794334067,114.76890096972193,337.1480121960702,196.4618726704235,263.40868797866995,108.22245611421856,218.00812085093685,95.13509368936704,214.171116146152,282.1255996097029,247.4079576760485,214.07625926235005,236.26722977754085,141.22652679249217,20.8184223175049,23.3849487304688,21.5380573272705,17.6690044403076,22.5587577819824,21.8555107116699,12.3163404464722,21.4024810791016,19.3163051605225,-7.4255447387695295,-6.06270408630371,-5.31358623504639,-1.86767578125,-3.59620141983032,-5.42423582077026,-3.3361811637878405,-7.09287548065186,-8.6297664642334,1
260.8385544103438,215.507026332284,215.97223477421048,147.77274672011677,161.3708450809781,115.60257717262098,191.5545160379836,205.74215239626912,195.32169680546,163.11197021741128,174.40040965206074,135.17069781429268,145.49460465992215,225.4891622594862,146.54684938340185,144.68890435305985,179.78989150784184,123.92520157949626,20.5364017486572,24.5557823181152,24.5697441101074,21.0575790405273,29.3281784057617,26.3171577453613,12.3364953994751,23.99147605896,21.0259056091309,-20.3362941741943,-26.6118774414062,-31.3365879058838,-16.3702812194824,-21.8217506408691,-23.5554637908936,-14.186085700988802,-16.7459964752197,-11.9787254333496,1
