F3_t,F3_a,Fz_t,Fz_a,F4_t,F4_a,C3_t,C3_a,Cz_t,Cz_a,C4_t,C4_a,P3_t,P3_a,Pz_t,Pz_a,P4_t,P4_a,F3_P2,Fz_P2,F4_P2,C3_P2,Cz_P2,C4_P2,P3_P2,Pz_P2,P4_P2,F3_N2,Fz_N2,F4_N2,C3_N2,Cz_N2,C4_N2,P3_N2,Pz_N2,P4_N2,label
130.1113662987418,99.63697946217351,199.68072258653143,112.0767092159418,99.05831682783352,67.92469782522694,196.49282599412487,136.23983826845614,275.136466764096,154.781491840696,312.91628632069705,222.7943265991257,162.70158412696182,154.5331525172503,263.11605018078194,184.51948676328047,261.63089770452666,182.8344775277657,11.6684370040894,14.8198938369751,22.8379001617432,7.141800880432131,8.95147705078125,16.5152931213379,5.74847602844238,9.19983005523682,13.8841314315796,-11.021035194397,-14.3815937042236,-16.9152565002441,-13.129074096679698,-15.594479560852102,-17.9034805297852,-2.96064400672913,-6.56447505950928,-10.4898090362549,1
224.3199716431925,103.46439136431408,218.1309124273452,97.15450962971391,204.9846621545512,112.28848135318044,141.15156329870703,86.94230217295434,182.0991014298728,74.10212623225632,190.5785392530918,89.98481649673232,168.34485524849947,108.00882176379626,211.25787508503453,148.80575476415316,214.39744549130256,167.43690412436715,17.6592330932617,18.4070129394531,24.7855987548828,13.113766670227102,13.2191944122314,14.5645160675049,16.508243560791,8.86998844146729,9.53671455383301,-22.9559860229492,-25.1962356567383,-22.0337867736816,-21.709135055542,-22.2525959014893,-21.5522804260254,-5.11249923706055,-14.7855997085571,-13.112562179565398,0
166.82286344890016,52.68423896225747,171.05208898184398,61.38675470796766,100.30172877018296,69.54649457418036,162.67725198462247,49.074414997510544,202.0688217500417,61.97028516054984,157.31854514309933,75.65060887208314,139.56169272015362,91.39176236475254,231.9182711957431,85.7780377985896,212.28191042879604,97.01183109852454,17.3851165771484,12.5440282821655,14.7324552536011,14.726131439209002,16.1716690063477,9.5847806930542,6.06606674194336,2.96144866943359,3.4350049495697,-12.9048519134521,-11.9992198944092,-12.113525390625,-11.0066976547241,-7.62355518341064,-10.1532554626465,-11.3623008728027,-3.369902133941649,-4.96043348312378,0
175.21684289126924,106.07113030237028,239.99655423563595,95.613456943638,147.19001603208244,77.8051521898638,168.37997100676395,120.26232392202124,300.2091625705805,85.13248126901094,229.09537100260584,113.9748688305278,226.42343592446565,102.16586296332224,218.66456242279327,67.82511083592173,250.93650803493068,120.00835181150464,21.3680419921875,25.938135147094705,26.1640682220459,16.867733001709,18.3925228118896,19.4187412261963,14.8266077041626,10.6277894973755,9.11684989929199,-7.706222057342531,-8.92826175689697,-10.6028251647949,-3.3624472618103,-8.00009918212891,-6.98378705978394,-9.59919357299805,-7.7545280456542995,-9.74156665802002,1
87.96541992621844,112.3563699164648,154.78203502657885,174.13415685615897,115.96107076826198,114.53604613693408,185.60867148181012,176.32530030498668,191.681015630766,191.3336313737373,136.15647392430995,210.44361499581635,155.4055100855433,114.80143196049843,270.8475803043294,228.04171712153817,211.3688261171088,253.1687888091735,15.876589775085398,11.4793939590454,4.39200830459595,19.8593044281006,16.6006717681885,15.1563539505005,19.2786598205566,15.229123115539602,16.7775897979736,-9.17698574066162,-6.651971340179441,-19.9261493682861,-7.18244886398315,-5.48398637771606,-8.82105445861816,-13.4451360702515,-3.51816558837891,0.0335574746131897,0
164.30816054050234,91.04915870663817,223.5529277708266,181.30695825700136,138.92422508082493,154.4851531570665,126.86210847048534,148.40012032213178,184.6160181465849,123.58529741423352,159.6527374634908,166.9608253229105,217.6631030841233,192.83091023534703,192.88021925113216,170.2578771940755,152.01258857536354,124.38495701284424,10.7419061660767,7.06028032302856,7.195206642150881,7.19463777542114,12.7755174636841,14.430193901062,10.8928709030151,11.3086786270142,10.2000722885132,-6.412296772003171,-1.02160668373108,-12.21630859375,-5.98776006698608,-3.33303308486938,-2.59536170959473,-13.1868019104004,-9.70010375976562,-10.3434629440308,0
176.50632867771543,72.459908390899,330.3225013344536,155.14752532880473,107.46193392068916,58.36435796184717,300.01069979169915,105.492282913729,439.9672163984743,154.70988499079272,224.10719887029256,142.29340562487184,240.1864179820616,89.1070903658389,273.6516857442612,123.42496989867728,247.8204518571013,169.2626315348386,10.0134696960449,7.894252777099611,10.9417762756348,13.3743228912354,11.2861213684082,8.97286987304688,20.915189743042,13.063807487487798,9.08185195922852,-15.1278295516968,-6.686337947845461,-12.1866226196289,-22.0564117431641,-19.2716884613037,-16.7449550628662,-28.5568370819092,-15.3113069534302,-7.54373455047607,0
134.6528950747098,154.2062584076927,209.1029906345353,252.6462809709593,75.97472848019063,122.58524054179628,218.23648490497655,157.07864006048482,254.80212801880728,136.66180555807287,125.73914118316516,134.82379115002502,279.3434638546253,118.16520998204923,152.481345114757,128.37025327478426,101.85741978495275,153.2151542048382,18.818531036377,16.0916805267334,25.6111831665039,23.0483551025391,26.6959819793701,21.6057281494141,11.0123739242554,23.1958961486816,21.3783054351807,-8.28711795806885,-5.08674955368042,-12.1393613815308,-3.08799242973328,-4.36199712753296,-12.0834932327271,-10.2399864196777,-3.1267991065979,-7.154140472412111,1
179.40302549874886,82.23773866319021,184.3328901820583,108.75337818383208,120.12929322585524,56.79024135436062,169.19850067076055,80.7699163642363,171.1367821250889,74.69274233779856,207.8806765266833,117.28938597613812,251.63035736703327,103.0953419245484,172.4099365561806,94.78283918785364,217.7922669497387,143.00883252595588,24.704288482666,15.160709381103498,18.2414131164551,19.9060287475586,12.2779474258423,16.5763359069824,22.0807056427002,14.808048248290998,17.2752208709717,-8.6786060333252,-5.36209678649902,-11.3761539459229,-11.5997943878174,-7.61797523498535,-7.47519207000732,-5.04622793197632,-1.8863841295242303,-0.725734114646912,1
115.20064977479883,57.78357766753116,159.52038252448503,65.82098901854816,71.19424757360599,56.02101300317296,189.7584310356989,82.49253888818154,139.45582129435306,68.0991685693787,75.3515490415426,92.3353172492992,370.8203520691859,215.03622790509127,129.14643178977795,99.64357069197229,106.68853057799647,98.72652512465112,9.37141418457031,11.6486778259277,16.0782108306885,15.0685758590698,17.4419746398926,19.2239646911621,10.0534162521362,13.916819572448698,11.0192556381226,-12.986251831054698,-1.35109519958496,-3.53771734237671,-7.87586832046509,-10.3193864822388,-6.4242444038391096,-15.563822746276902,-5.26109457015991,-1.66013610363007,1
196.153117106954,111.82837654726434,162.44511586006416,88.022603382332,124.63311638542687,47.93819440990265,191.8723883572057,96.8875454003466,233.08232509839496,92.87949659655015,154.3907246424362,63.83772790971248,214.84771307652963,138.92069251655764,231.7913751657325,147.80159278777091,194.381774836478,230.37711694989784,17.0014038085938,19.0362396240234,22.6225910186768,21.3447589874268,21.1533641815186,17.2331428527832,9.96439743041992,19.8045825958252,15.8199167251587,-12.1876068115234,-6.70394039154053,-5.26962089538574,-9.35319328308105,-7.75260925292969,-8.14922428131104,-16.2185840606689,-10.7113847732544,-4.19354486465454,0
152.6061433113956,167.24719370410972,194.2004725997016,184.5583467834158,144.454375231638,106.92062239361375,172.15042492415373,149.74693108395903,193.8638232341018,185.29201340321,204.9131815947729,171.93208963540243,307.20073026703204,226.4641760480225,251.3266359823924,191.212040599024,233.36428178365287,136.47820799533588,19.6535892486572,12.5656957626343,13.4938154220581,13.518163681030298,10.4101886749268,10.4671382904053,12.7980222702026,10.1853799819946,7.16717720031738,-10.7054777145386,-11.5958871841431,-13.866139411926302,-2.48446559906006,-17.7945537567139,-19.3649063110352,-8.11736392974854,-13.2776222229004,-17.8918743133545,0
251.6679023267033,88.52784013490967,218.51838390233175,80.66740407291823,218.7395777950153,80.98509249509755,287.6964504869627,100.52292125696968,324.2484422520892,101.95042358154366,294.807317338152,95.62627551922763,204.75526259860985,110.75987545638326,296.7624931050873,76.62476969970156,247.28891707477973,84.0710051620497,26.7262134552002,22.9492340087891,28.19264793396,18.6170482635498,16.1129360198975,21.2674732208252,20.9380302429199,9.45060253143311,8.13589859008789,-3.870758533477781,-2.14703583717346,-12.3516025543213,-3.3081994056701705,-1.38847780227661,-4.85086059570312,-14.3579082489014,-2.57816052436829,-1.55311036109924,0
230.96001845665813,63.53795517162779,294.8471350322505,115.09829669377989,144.9991945683899,50.90724681518637,290.51236936263416,75.36736874380523,328.28903255109327,115.28870635303296,393.2608375819482,165.48821650790032,203.0649485614512,77.45405296816573,201.41168861111075,124.76925116965292,156.15812565216712,118.99137538694931,17.1178779602051,15.1425285339355,21.3261985778809,7.8836612701416,8.97130298614502,11.4880304336548,6.15855360031128,5.61239767074585,9.688645362854,-12.4608001708984,-7.3115611076355,-8.53027820587158,-7.72974348068237,-9.14323806762695,-4.48543691635132,-8.1823558807373,-4.67707920074463,-2.77690148353577,0
144.99805759667026,181.42672500709364,230.57377258944533,200.96934069429227,175.89672696046645,183.56711805616337,211.7151544468116,207.7561861156271,333.28562877270554,305.8320942608996,159.44172924741602,165.6240466981872,184.80601328620503,184.0145367166824,233.0399211032542,393.1895434200064,226.8550761860769,382.1702609533776,17.8511962890625,13.7544937133789,13.071343421936,10.9492979049683,11.9210472106934,11.565954208374,13.602966308593802,6.20803546905518,3.54329538345337,-11.5452003479004,-12.847731590271,-19.6293792724609,-17.1814994812012,-22.85276222229,-21.1691818237305,-18.0066394805908,-21.3833198547363,-16.5007610321045,0
157.8969648940018,147.29329641881444,175.7705576451332,209.537640785188,109.58027906283382,126.94833220545344,229.2223180342876,253.17460904323735,265.45254295474973,251.56951545254583,114.63072048541756,167.45492020848053,166.40800360276626,139.90965070875103,186.17435706378512,267.4266734428855,141.69165683217753,187.4589319250553,5.74095296859741,5.01790952682495,6.46622753143311,6.47767114639282,10.4865064620972,9.05091381072998,9.37108612060547,7.247641086578371,7.54802274703979,-18.103645324707,-17.1845378875732,-20.1487159729004,-21.4822292327881,-16.2548885345459,-26.0350170135498,-4.98262977600098,-7.699936866760251,-9.66300392150879,1
162.29827320776096,89.8676655323613,220.593570197515,129.20933576918492,150.9336811157014,108.02424491817142,247.30085052063373,126.39057790341758,319.8639436708359,200.64079596962884,266.25905140210784,224.1122276900456,155.21195094269672,114.54207525924171,200.9297058740947,196.47865901998583,205.6448653153651,226.5698035915036,3.38349676132202,3.55365371704102,13.7839574813843,3.9760911464691207,8.10458278656006,12.0946788787842,7.72019147872925,7.80767965316772,6.7177882194519,-13.3227090835571,-14.2401876449585,-16.6169109344482,-7.97230911254883,-15.5029468536377,-12.2570905685425,-2.77212476730347,-6.59177875518799,-8.24080276489258,0
326.242892141503,411.2578474921533,459.2788307488773,469.3420155809152,341.44664393834586,370.6592856944404,452.3161054912155,460.4766027421186,646.3286700298164,629.3613374980634,441.439573112196,528.832299821722,495.9663987583685,519.8573250873185,672.4736430548455,766.2930097461874,481.5119944065429,536.1831111455924,20.307746887207,16.0494327545166,20.6911296844482,14.203256607055698,19.2445945739746,15.868540763855,13.953857421875,10.4438648223877,10.6635732650757,-17.4869441986084,-12.4890031814575,-17.838773727417,-15.4164056777954,-15.0681924819946,-7.6740026473999,-13.8683414459229,-6.54221105575562,-4.54968500137329,0
83.8197001607867,52.1305610625369,200.46343856310145,100.98613244860064,152.0139743897037,74.98138488589983,197.3981379348992,99.4672465694284,291.80490619020736,136.8714400572699,104.93229261406968,69.50769831701373,271.5743569226396,205.7428334212541,287.38170476243,273.9090507574687,189.4390088007514,259.863609571609,15.6852025985718,11.6355905532837,16.6603488922119,9.65019130706787,15.7211284637451,14.1500968933105,15.676834106445302,19.0487060546875,17.4976749420166,-12.7483034133911,-14.0260057449341,-24.3229274749756,-11.6526165008545,-18.6385059356689,-13.4182729721069,-22.1379013061523,-13.6189050674438,-13.4068593978882,1
183.58551344891612,207.95108900317115,194.7751994274069,168.32329344630557,187.33582106618587,138.8563588843378,253.34364721766175,265.65481308129995,240.45105210737643,211.9263926119188,303.4754832626602,199.57369419729997,221.756666924436,142.31616149316298,190.6958388942113,168.44385892856093,152.17911589706358,112.64013108092767,17.2165107727051,16.6327037811279,13.166539192199702,18.756326675415,24.3255176544189,18.3195858001709,20.9884624481201,18.9061298370361,13.8361034393311,-25.7413673400879,-21.9201850891113,-23.3767547607422,-21.8295974731445,-19.413818359375,-21.9770469665527,-15.1962356567383,-10.7057685852051,-4.5037989616394,0
311.678376975405,154.92220299775303,108.54260888001846,50.75102373114797,231.70356816189468,94.48722012899412,123.97122601454883,111.9298006581841,198.6726619111633,134.98712905405736,284.000906430759,135.70588951453857,125.2895244499696,175.15577874199147,171.3583835923609,171.73577415476842,218.02642187753864,181.4924981958401,3.1333327293396,5.53509902954102,8.58130073547363,6.27555847167969,7.61251974105835,8.17789745330811,8.21570587158203,1.35685908794403,3.801201581954961,-14.0014133453369,-8.74200248718262,-11.7007322311401,-11.3206787109375,-12.3650703430176,-7.660543441772459,-14.7444067001343,-12.6543235778809,-13.7249546051025,1
160.68117978623783,153.75633671084245,120.8007254808481,100.89280947721268,86.25685825216433,94.9589993901008,156.7145152094444,220.2529792567417,72.74264349443835,119.56971907392412,41.07758016342785,90.19668123870838,189.9543467887229,145.11453958826797,71.92043360678598,155.9007573642539,41.76186269407539,96.4155559832984,13.9501533508301,12.1659936904907,16.2254199981689,17.5385265350342,17.2163772583008,20.7531337738037,11.2320327758789,12.2597131729126,10.211895942688,-9.51305103302002,-13.3798894882202,-14.7081336975098,-8.98204517364502,-15.6855573654175,-14.6956167221069,-4.99377775192261,-6.48417663574219,-8.94542598724365,0
209.07431030736697,97.55210130441968,175.5552302153101,79.55958844152491,132.31335729858424,61.50279927916162,191.46116210888053,110.68905676664043,122.19366694675313,69.86980360754117,130.49001515045782,102.06509005745802,222.0701976851132,248.80498802194776,174.91520488630226,112.56741277467304,101.7093531045082,67.62455877885496,19.4636974334717,14.6719427108765,22.6177501678467,18.2551727294922,18.0266361236572,20.2074737548828,13.238294601440398,18.3976745605469,12.3381233215332,-15.0426197052002,-7.50975370407104,-9.34893608093262,-6.03610754013062,-6.30262422561646,-8.41364860534668,-7.85219287872314,-5.91686391830444,-3.43330216407776,0
112.76135810193648,80.65136295933816,158.1467259692768,144.17335057427752,148.2487270126672,83.01649640161342,193.23378912919296,147.60804701194724,299.2005764410757,169.3437162816671,213.26501333488295,193.43802835953204,157.47631101201145,169.4936165252737,267.40995843800897,294.2275453329429,245.92981471524556,245.0704042696972,10.5270290374756,9.86386299133301,12.4396772384644,12.1199369430542,17.4932689666748,12.3582592010498,14.2481355667114,10.2785930633545,13.460823059082,-10.3580760955811,-12.4545783996582,-24.7746334075928,-9.82850456237793,-9.42269611358643,-19.5940341949463,-6.17048263549805,-2.51612687110901,-7.084311008453371,1
274.87923117544017,115.6101791231007,261.3183675797918,131.3483220918757,129.34459460709533,76.53309732159218,348.02241741061925,156.4610985829355,300.18409656474864,135.17958807553904,149.354778151375,96.24593070882464,243.00367519912407,150.09425323811277,252.86023348234144,154.24342920083848,199.21113444700129,154.49540536802104,17.1828746795654,17.3775787353516,25.0533962249756,13.419064521789602,12.0483713150024,12.7971239089966,3.85008907318115,5.99046421051025,3.82795000076294,-13.0711889266968,-4.96537017822266,-10.4213705062866,-12.1755104064941,-12.865205764770502,-8.2056770324707,-17.7246265411377,-18.354621887207,-12.6208038330078,0
213.6306719591548,70.1495027584162,247.63874185210668,63.96457534043075,150.7354629481983,51.1447908353982,179.76462786697454,111.06238242551356,338.0154935159177,160.70205945477795,206.38879050671036,127.92927436245677,214.98654259204,121.40792082448976,232.1619439925512,154.96900563953696,282.8417094542804,154.306509384112,15.8323049545288,9.29296588897705,14.3143005371094,10.3435916900635,11.6452016830444,12.4632005691528,3.797782659530641,8.38638877868652,8.81966114044189,-20.1432361602783,-13.0031251907349,-12.6578130722046,-16.182767868042,-12.6636810302734,-10.5626535415649,-7.691586494445799,-9.62894821166992,-11.7511901855469,1
