F3_t,F3_a,Fz_t,Fz_a,F4_t,F4_a,C3_t,C3_a,Cz_t,Cz_a,C4_t,C4_a,P3_t,P3_a,Pz_t,Pz_a,P4_t,P4_a,F3_P2,Fz_P2,F4_P2,C3_P2,Cz_P2,C4_P2,P3_P2,Pz_P2,P4_P2,F3_N2,Fz_N2,F4_N2,C3_N2,Cz_N2,C4_N2,P3_N2,Pz_N2,P4_N2,label
169.1019537909023,183.92878329425804,227.8565544886421,180.05234531466326,101.90229926817712,77.82875086099868,163.17361384297288,200.60436364028448,122.13059446456798,201.08224416250937,63.178444116610855,145.27309098241278,164.7687695303577,324.79718969249205,86.11055109468846,312.4921928362077,28.73314106206877,202.2360819650244,9.5653018951416,6.38441038131714,8.30830860137939,5.1705756187439,2.10545372962952,5.05102443695068,3.42682886123657,5.77511882781982,7.438740253448489,-6.12545919418335,-5.38492155075073,-7.3799524307251,-7.0950813293457005,-9.10312557220459,-9.05077934265137,-7.406164169311521,-7.037060737609861,-8.15657711029053,0
161.13375980595137,273.0422733996581,147.11845639831216,210.16886044538876,192.2085027420953,198.59017168117217,137.55545171924194,265.7716213866936,74.25643861358401,84.48574803334525,62.708590282864265,113.53901627405796,120.41268411470746,255.08919072777195,83.32481894452852,159.71526246750986,87.37239451786874,385.14690868280405,5.81064128875732,6.75648355484009,8.74636268615723,8.16930389404297,9.30131149291992,11.205885887146,10.174262046814,15.7389192581177,17.0293159484863,-6.70351123809814,-6.5808482170105,-7.5382227897644,-4.66601181030273,-6.43390083312988,-6.11660194396973,-6.5194625854492205,-6.53805351257324,-10.6280612945557,0
127.13190949916503,498.2472252885095,156.56914187448277,605.6980975817983,116.75007503272258,497.4500169693525,234.05831617005143,896.7896635137556,190.29669246530372,819.4052534830507,128.19246926507023,762.0939224029543,88.03547383103465,517.4683606943416,107.53020350064394,653.6557010143835,90.40802823066043,563.943434395313,18.3986129760742,10.8337469100952,12.3044519424438,12.7342224121094,10.3365478515625,9.80021667480469,9.82199096679688,8.87001323699951,5.48464918136597,-14.1290836334229,-19.3539218902588,-19.6189460754395,-12.2748613357544,-9.50340461730957,-13.6643295288086,-5.68130970001221,-7.91264677047729,-9.8460111618042,1
146.23032236034192,551.072898415921,145.12225696374142,487.89474973850105,119.7303397279086,351.6577166168745,172.47490929874976,620.1206621037879,199.89109095362187,610.8985715986303,135.60057878387406,527.365910737032,134.04639089213515,449.71936080703045,236.34891779102452,607.3686296327792,213.42805251261143,671.9629709906111,7.170803070068361,4.98563814163208,2.80149412155151,2.84264421463013,5.4187273979187,9.22501182556152,5.47329139709473,9.11508941650391,12.3186082839966,-14.282922744751,-10.640998840332,-15.3951377868652,-6.631899356842039,-11.2308053970337,-19.6007843017578,-5.35436010360718,-6.91161918640137,-10.2355070114136,0
169.14349291669382,321.78177611738965,229.65184337666787,439.8314173971284,140.87844588717087,341.89291477016275,239.71202597216129,469.15417476071167,211.26295837947447,413.6462318451771,147.78942414986625,475.1603738402557,267.8858417296826,732.8461018099892,193.87005705220284,415.4584831956327,119.35484148880435,537.483134915412,22.6750755310059,21.7467765808105,19.9927406311035,17.5209865570068,17.1620101928711,13.056367874145502,13.3264398574829,15.0168790817261,15.0228157043457,-16.4347038269043,-16.5131549835205,-22.1653270721436,-7.99731302261353,-10.1162405014038,-14.5791606903076,-8.68251991271973,-11.5668163299561,-9.03122901916504,1
177.20060568852983,301.2024581545773,289.3375564435238,373.4790351246945,252.6522346432912,293.12685922229315,210.83842961473272,382.0027859398971,246.4803563164219,377.4489778603413,273.81946987598417,366.93385940388873,124.56690063887862,490.2912108538076,115.89598012056229,555.9892539638553,129.9517227811467,558.8983512914506,9.30931186676025,9.07889175415039,11.5460453033447,10.5843048095703,7.20763826370239,8.00068187713623,13.3130664825439,11.1630258560181,9.01585674285889,-15.9468784332275,-17.3663768768311,-18.6061325073242,-11.0524349212646,-10.5459003448486,-8.89521789550781,-5.63480472564697,-9.12767505645752,-9.28543090820312,1
139.48788600360547,548.552135076347,115.44560107143693,409.62348583696206,120.45937892257386,332.14087808299377,152.48032780872524,532.1172646430024,146.6670305194237,490.6425306159899,105.23098924640016,327.9998658662659,160.09973179855325,792.0253150918971,84.44847094447702,553.3931653926973,66.86512745161554,523.7238025506603,20.2899761199951,17.0029525756836,10.6960487365723,16.9668960571289,15.294771194458002,12.3436183929443,15.7254495620728,13.1635913848877,14.152623176574702,-7.64215135574341,-6.13628673553467,-5.35321807861328,-17.0910606384277,-12.7742185592651,-8.70693588256836,-15.179759979248,-19.7103805541992,-15.0924596786499,1
100.23273354738026,458.4687733660832,115.22300916223978,517.2372140555175,111.53124827783856,474.4508010473233,94.9269672106582,543.2456161767326,128.66452405014476,647.6061360801034,93.61746342649433,460.8577331965223,94.92725105934286,558.2727977199322,115.53418348941666,567.4400950026734,85.99542224663584,320.3262083117126,6.97152805328369,11.77001953125,13.2424745559692,5.89784717559814,8.51891803741455,13.563991546630898,8.75444030761719,11.1984691619873,13.573769569396998,-8.22126293182373,-7.31399536132812,-10.1060028076172,-10.4378843307495,-13.8398389816284,-8.33515548706055,-12.2279767990112,-15.432219505310098,-9.36002922058105,1
148.43594073004633,226.6197658576916,218.8697682770042,312.38869950778025,253.85804326388987,301.4350802235613,124.73683910386454,250.30630250501724,176.26105057173405,258.881727491285,147.54508255532795,273.6750732366788,111.7566819064538,386.4633256175204,105.73308101324308,366.9514205039718,132.89180324453102,599.560410054914,11.1046543121338,9.88995838165283,13.1332302093506,4.08499765396118,7.73755359649658,12.9401779174805,5.74396896362305,10.487135887146,16.0672435760498,-9.44701957702637,-15.3456153869629,-18.6884670257568,-6.88500785827637,-17.2127685546875,-22.728063583374,-6.75310325622559,-14.789663314819302,-13.988974571228002,0
67.9955321720608,158.23193860731848,83.75265539994086,118.31601103526464,87.2930733199124,133.53590166591098,55.93044143331325,141.42671347373434,65.34619192585156,110.3806636343099,77.46302549535356,154.66917183469062,105.18055607623856,269.8142495820618,112.19484336274364,237.9923616441822,109.98826184310624,283.87068039820707,7.28089046478271,8.85970783233643,10.9803094863892,3.63395643234253,5.28491258621216,9.72347354888916,8.1480884552002,7.231527328491209,9.33515167236328,-11.307089805603,-14.65602684021,-9.87251853942871,-8.71413707733154,-9.00640487670898,-3.41303706169128,-6.664984226226809,-4.1552095413208,1.6836715936660798,1
175.88935215394852,521.6347137935045,183.89835624295267,467.1215533701375,170.82224992754956,364.0403392911194,103.5580071198097,346.7123679406976,155.3925712156666,378.9770511077575,176.80967183003148,392.1010030326753,63.780227217827786,356.39975685430386,98.00830188785272,471.95791332238775,122.3061557502694,560.2231287969117,18.7970161437988,18.7717742919922,11.0871429443359,15.186983108520502,14.817195892334002,12.2402620315552,11.4009084701538,21.0039196014404,17.4920787811279,-13.9553995132446,-14.021301269531198,-13.638940811157202,-12.7719421386719,-14.6598320007324,-17.4211483001709,-16.8502960205078,-19.5565757751465,-13.727603912353498,0
56.764038663887945,47.11019618619944,130.84734008493243,122.4092260364005,52.17447197427628,53.0393474329628,32.084193350991846,34.30621967520105,47.85763273106491,69.04755056662161,47.43327289133049,57.66111484257127,39.258213659799246,49.62111722613617,92.39475160607624,105.5043351501528,57.4344699354493,86.60042684111964,15.0914096832275,13.6963634490967,19.1755790710449,18.5651473999023,17.3875122070312,16.9192924499512,15.0284357070923,11.0922451019287,9.0101261138916,-14.4434576034546,-14.418991088867198,-7.92680740356445,-7.092733383178709,-13.8338432312012,-17.7634391784668,-4.76640892028809,-5.72606468200684,-9.65235042572021,0
162.24155211346786,422.6633931613528,135.58125800761687,366.0445561424532,132.84664656664458,335.7986713138069,218.61930746970555,532.9033699761947,279.29667845350536,497.2348003992313,127.6549066329646,370.9833474604307,103.22124648419482,414.5291879265328,158.57183478889905,470.5554360615273,142.80533102299609,655.3722589785604,10.6256084442139,8.57382488250732,5.05383729934692,5.19382572174072,4.93209552764893,2.22051668167114,1.56691038608551,0.907498240470886,4.72522401809692,-9.81671333312988,-12.6041440963745,-10.3626070022583,-11.0756607055664,-10.906177520752,-6.67034530639648,-4.35187101364136,-11.2614574432373,-10.4368782043457,1
72.28408028910333,425.010150010043,95.12455542003728,476.219871532182,117.201288452975,471.41941598593104,92.56352540079814,530.4592815121928,155.66341541933292,509.5228333136723,216.08732422203303,654.606179415352,95.56920438387108,719.5036254623251,170.69335998231338,734.4628275641127,130.10218196691022,598.6671942575682,11.2989044189453,11.9345741271973,10.6289138793945,11.3208656311035,16.6233654022217,11.5559501647949,17.2742786407471,21.5860958099365,13.7770462036133,-17.9676361083984,-18.3823528289795,-19.1087169647217,-17.9262180328369,-18.3632125854492,-9.24879264831543,-12.2443838119507,-16.5346164703369,-17.6463680267334,0
176.832087418377,341.52843037647307,164.6532942381057,291.6053306937616,141.84824439539182,249.44568303641967,165.66575558852463,340.4184499321495,177.48666929304449,289.02489503281254,162.34375310497236,359.75702901884137,130.0788484337338,486.978168818874,132.21842867950443,357.53148274660805,168.05995066968794,401.5957499683304,12.2540149688721,9.19623851776123,11.955735206604,11.9755344390869,8.7202033996582,9.83779811859131,7.93291091918945,8.08022880554199,9.74088954925537,-7.97470283508301,-9.99804878234863,-4.2750940322876,-6.81400728225708,-4.93089962005615,-7.21571636199951,-4.92933082580566,-6.03105354309082,-7.19109773635864,1
271.4180456929152,148.6967716330283,370.7592862539567,202.74731691782236,226.46541002635263,135.15550554371103,380.68382525461146,135.92409479717148,403.42463376575904,174.43740471437883,191.0913736629575,117.0093227653382,208.59542610399964,108.34537032138437,179.15345621089324,158.85653583625546,173.05881836237262,165.10527803951683,8.13450336456299,7.78981351852417,7.322977066040041,4.00446701049805,6.08216714859009,5.46439695358276,7.90624094009399,9.82707118988037,7.26986789703369,-9.46302795410156,-12.1550979614258,-5.62171077728271,-10.3652153015137,-11.6034927368164,-4.32540416717529,-6.17661666870117,-4.41853427886963,-2.88892507553101,0
114.0274949198909,182.30138141572343,135.52039830478182,234.30768542850208,209.05819876402848,324.91615093913583,145.68187720488694,127.40139668192585,133.66648927709463,122.4112075649627,213.22428322209333,332.8118177485059,169.7848877455115,159.08411199140792,141.93524016820655,268.6314672527074,114.9279539553592,388.9501664218941,9.40807342529297,14.1116132736206,18.3554744720459,10.4447002410889,14.9483642578125,14.7943544387817,8.17367839813232,13.8258838653564,12.5816040039062,-11.6853427886963,-12.7188653945923,-11.5081481933594,-11.1207065582275,-12.6885652542114,-8.45395660400391,-13.7727785110474,-18.8842468261719,-11.403172492981,0
122.1769672656333,155.66617557243669,158.8463331133727,157.17953897156454,147.7274963249495,180.02756618331708,127.27672894113728,254.7703791320337,123.35749110551704,189.2092345749656,171.01927915223976,296.79218487729906,75.50372317122489,389.0561541985099,126.99149157535945,631.8857734639986,109.60462149681062,698.187959982864,11.3284301757812,10.9742565155029,12.6142520904541,10.6237955093384,11.5631732940674,11.4208583831787,7.224791526794431,7.97937393188477,9.27711391448975,-15.603300094604498,-10.4872522354126,-13.4126300811768,-8.62653350830078,-9.45269966125488,-11.7632465362549,-10.0076065063477,-13.6468496322632,-8.22135639190674,0
189.21767321581703,331.7083683801864,236.6509865174277,268.2499197158048,156.42548981407884,294.074110580057,234.0235850186145,355.05566438580524,211.61520894702957,328.9403521109428,130.93969046345262,392.52333419090064,197.2488496748971,467.6013222395988,141.88023930060194,457.3247655154892,109.81984294198948,558.5681106776191,15.112342834472702,14.968654632568398,13.8147773742676,10.7808895111084,14.4610481262207,13.7582426071167,12.0565671920776,17.320728302002,17.1789016723633,-11.4000425338745,-14.640722274780298,-12.4374904632568,-11.7598266601562,-12.6583957672119,-7.58073997497559,-9.95351696014404,-8.6913423538208,-8.25546360015869,0
52.08215103763367,128.6454872289132,117.61128827801244,219.43058350009412,87.79203339792616,123.94391915759486,82.533262293402,225.5520812586346,141.21919246825183,295.12838229692056,279.80453820645255,294.2512858959661,93.56791494180864,416.5936776418097,80.53660296938024,436.6053250306942,82.34772911588394,575.329149566129,5.53111457824707,4.62825536727905,3.95436692237854,5.89008283615112,8.08677673339844,9.34437274932861,12.3479852676392,24.018310546875,13.6768913269043,-10.1931819915771,-11.7520084381104,-4.7164363861084,-11.1643886566162,-11.4230051040649,-3.77358484268188,-18.9819717407227,-20.9088325500488,-12.5254125595093,1
71.9413902363313,212.7470297076597,156.7653020076337,431.2137439618596,107.0945405424262,303.52968248229416,67.15841819873714,229.8882048335593,135.0062007589356,374.809128513609,120.15294779744193,332.8419397820047,80.70366357568773,351.4286588959063,99.80676681087972,309.2702641827733,124.92463085235302,439.98733518699873,8.60922431945801,4.0803542137146,2.34420990943909,7.01434135437012,4.38698720932007,5.51540803909302,2.61951017379761,13.7659177780151,7.83286142349243,-13.0546789169312,-11.9789447784424,-11.4591941833496,-8.29957389831543,-9.78803253173828,-12.4103240966797,-5.99261808395386,-11.30930519104,-12.8636779785156,1
233.8258347265298,135.44466554663893,254.2876959630668,128.71995483583606,107.60398087263152,74.24319668102424,166.64172814427147,106.97899592062625,238.2041018060236,197.78144135143083,127.3436554854955,113.43385184610172,102.86460086889647,197.0113401919649,109.28968242251182,284.2503757500899,111.37993748880824,259.92400602456246,6.54521799087524,8.11501407623291,6.80844259262085,9.26821327209473,11.8286800384521,10.3169765472412,13.4300117492676,14.9888687133789,15.7781610488892,-12.4829406738281,-11.2842864990234,-13.8024425506592,-6.43263721466064,-9.90920066833496,-5.9441819190979,-4.49389266967773,-7.55148649215698,-4.67698383331299,0
236.63443257365637,307.83554851029095,527.5354049879614,177.14101526007497,184.02065192785344,224.4627053774606,210.2087272155548,299.17619326398653,128.51746626071028,121.5221018817371,139.75633485203235,181.43528988335717,258.9606051441868,486.7351580680363,180.79264161614583,235.23790845346824,167.46157813996595,285.87443093440385,10.4234962463379,24.858865737915,12.9671745300293,12.7265625,16.1349411010742,12.5206661224365,11.8705787658691,17.2013072967529,14.107029914856,-15.2584981918335,-12.7553434371948,-10.7165718078613,-4.26376628875732,-5.61954545974731,-3.7384426593780495,-1.47787845134735,-8.75856304168701,-6.68262720108032,1
123.73340327783,302.36026874744687,209.76887210685695,260.6781038554274,113.16493002709822,205.08149494991125,112.26312460330942,292.19713523096,99.61657830929973,203.22245488360147,119.65313358625292,144.85197169551915,86.172572762142,348.16574732417007,64.54747302377116,190.57315111396463,74.41000808727428,138.72126395648877,11.0473680496216,10.3210830688477,6.840095996856691,8.67741584777832,6.61109685897827,8.55660533905029,10.9537839889526,11.8834867477417,10.5473499298096,-15.2432842254639,-15.3525581359863,-12.4169082641602,-14.3717269897461,-12.4275093078613,-9.95878124237061,-7.03619575500488,-6.64045524597168,-6.80364799499512,0
133.5136169334052,99.4645121868785,292.68701951957564,259.2838215855355,220.7566205449144,218.194483356776,161.82726354900325,92.3446922217834,369.79033225575625,222.29209475135,221.97295138427685,173.408205111209,98.58848866035848,106.9679710624744,170.0915745572824,226.8674627754573,170.91950896409327,271.9140214591188,8.08109569549561,6.70359420776367,3.08383893966675,8.06443119049072,10.0363836288452,6.14853143692017,13.961877822876,14.642725944519,9.83696937561035,-12.6723670959473,-16.3004608154297,-17.4708061218262,-9.74320125579834,-11.0332059860229,-11.3590545654297,-11.474193572998,-14.6928596496582,-9.48000049591064,0
152.8140231431412,248.24325782395772,142.036220526976,217.91913671950087,92.89431821095113,205.43309245054203,145.00418349969138,212.78835953729404,120.19996640794336,212.6191450670469,77.74909402113336,162.80389957467514,116.21549140637131,245.10679370031525,143.11386412699986,317.44730099823835,66.91459463790433,182.6674125407695,8.21356678009033,11.2660293579102,13.5924139022827,2.67382979393005,6.67756462097168,8.98427677154541,2.48729252815247,4.51851987838745,10.9530687332153,-12.8083505630493,-14.719661712646502,-13.6037673950195,-11.7396507263184,-16.3373775482178,-16.0280742645264,-3.93135476112366,-11.0995407104492,-9.98532009124756,1
212.4420873133962,299.15667177965787,187.7728302884433,229.41227585015423,108.95509670345452,148.87515582177994,173.5542036640353,288.8691243500468,146.22467790282383,230.3946255925025,191.7390896903765,275.0243452025425,153.381272367214,311.8993748709925,61.5270617879661,101.03364799787649,131.9208901460863,539.3562211904275,13.1309509277344,14.4222221374512,11.6872024536133,9.63879489898682,12.3323698043823,12.1736764907837,11.8850002288818,12.6432905197144,11.5923404693604,-15.6164970397949,-13.2030391693115,-4.41743850708008,-10.8756809234619,-11.2424945831299,-6.499251842498781,-10.4188642501831,-15.5029764175415,-8.98144054412842,1
142.8956737228023,227.61198797691335,139.48820314842396,230.61031670714684,201.78564709393655,328.86573172924824,265.5116049692968,367.2533462992615,290.7735496703384,346.1237202097248,251.0615500211194,385.3501367438485,203.8594233743284,368.46402399566097,176.15902182779726,285.452434822701,187.36843207070143,448.1979309443058,14.5970973968506,16.7612342834473,14.278015136718802,13.0602617263794,16.1584625244141,9.83513927459717,11.4195795059204,14.5707302093506,9.22120380401611,-19.0603561401367,-11.5215015411377,-18.9554767608643,-14.151387214660598,-14.312024116516104,-15.7417392730713,-9.62193012237549,-17.06911277771,-12.6119413375854,1
106.01488044283109,195.56793857646136,245.04060659231,307.4556603939854,163.8270659884317,223.7279219081549,192.8997113090873,283.2042513381954,293.5464434802767,277.9463673131276,155.021320563339,172.56648932720088,248.8773109699913,455.4847830359404,193.1377686928337,302.73923483361403,120.13162667532195,305.6490106191235,21.9304809570312,17.5328254699707,15.207820892334002,23.119384765625,19.5306930541992,11.6555089950562,20.3664207458496,18.590482711792,11.9191083908081,-3.71792507171631,-6.14548397064209,-8.16978454589844,-5.03420877456665,-10.4385452270508,-7.71346187591553,-7.004907608032229,-9.95282363891602,-12.5347461700439,1
145.9574332112947,296.14406983840854,146.7433370439142,277.45600479681195,131.41849876975837,239.2461653565756,119.29569349560208,253.82189355421144,167.3795141309309,260.8638339052292,225.0318255223652,341.5573575306211,133.1082583292102,329.43411506651,170.12708416406224,338.6143033660548,167.58336197455918,234.5654508363833,18.9004554748535,16.458890914917,13.9714241027832,10.5602245330811,8.40465068817139,9.26590442657471,3.63027095794678,8.21903896331787,3.7951569557189897,-10.1036176681519,-9.67200756072998,-13.329336166381802,-12.8505563735962,-11.2433309555054,-12.2374725341797,-12.8073587417603,-15.669054985046396,-9.98126316070557,1
