F3_t,F3_a,Fz_t,Fz_a,F4_t,F4_a,C3_t,C3_a,Cz_t,Cz_a,C4_t,C4_a,P3_t,P3_a,Pz_t,Pz_a,P4_t,P4_a,F3_P2,Fz_P2,F4_P2,C3_P2,Cz_P2,C4_P2,P3_P2,Pz_P2,P4_P2,F3_N2,Fz_N2,F4_N2,C3_N2,Cz_N2,C4_N2,P3_N2,Pz_N2,P4_N2,label
202.56878758900027,49.32846110436468,246.7565387676962,80.48754478373696,225.552778147004,95.91805105546982,244.2964031292734,82.12581635734198,314.629728560069,109.2530935874167,242.15828043635685,112.5103672573046,196.75215073706016,113.4080192116032,265.1579455425855,134.7242349218337,167.33450472724152,112.38699853519,13.6804094314575,16.6059017181396,18.3319892883301,9.16702175140381,14.6992254257202,11.6937074661255,6.8178787231445295,9.80686950683594,9.428879737854,-7.138079166412351,-9.70462989807129,-8.33118438720703,-4.14243125915527,-3.46380853652954,-7.28852033615112,-2.60589027404785,-3.11012649536133,-1.02060616016388,0
267.7700390399733,169.47701546607834,213.2641627323532,186.377840851373,178.62885117252935,163.61270362731543,170.21696514324196,91.76903548725528,281.29117119287764,198.01698342338605,123.00037823951054,114.84488034484691,110.75856489182183,117.80661613216004,87.54061163800235,145.46969101599691,52.07445869575279,98.16409391389978,13.7167892456055,13.2378549575806,14.6316175460815,17.575345993042,21.4677543640137,16.1744422912598,14.9939603805542,17.0128955841064,11.9513959884644,-19.7611846923828,-19.1687164306641,-14.0483551025391,-19.9810085296631,-25.4275188446045,-19.4474983215332,-15.1446104049683,-19.2111015319824,-15.483116149902298,0
147.3762264272371,112.57860854720492,112.38952661130384,116.33311358477889,99.4186915490148,113.29433124703608,112.61082126278602,106.7819025874808,152.14471909357613,129.63678764611095,87.8946837452225,114.85324379383772,156.38928885191922,150.93688547505135,125.24589731385558,121.3419982465452,110.824690819898,153.77354774401027,19.1600284576416,16.9943161010742,14.1508274078369,17.2861061096191,19.322359085083,13.147132873535202,11.7619581222534,13.593723297119102,11.6258821487427,-19.2115249633789,-17.2560710906982,-19.060676574707,-13.9699783325195,-22.5316467285156,-17.9917106628418,-13.6286392211914,-13.2298545837402,-14.256848335266104,1
237.27712666320372,120.35876570025536,221.16740728011837,130.12843686443804,175.1625841547308,171.04438495855305,202.32437366781423,175.05627475323493,240.3611179253805,222.9079912899539,95.6021034742176,92.78107529822672,167.7520855935307,193.73582672443584,191.03811846444452,201.93456139836505,139.32890798951868,144.94506814131253,8.568359375,5.03904676437378,9.58180236816406,6.05512666702271,3.3150629997253405,5.65195274353027,3.87729811668396,2.88932037353516,5.23949146270752,-8.32290649414062,-10.2946662902832,-9.97626113891602,-4.98398399353027,-6.99994897842407,-10.6062526702881,-10.4914226531982,-9.09085941314697,-9.35208702087402,0
220.72470865992665,191.82565710750464,232.24907867703143,245.95044818122471,86.69847413586488,126.783184421306,299.6926827727156,257.94623437461894,260.1806017828075,272.44010112559687,66.21110824396908,83.21351063768044,233.95136676139768,160.62828350748603,214.34147290297037,181.52055562345,137.28853817721986,146.06889001136074,13.5474624633789,14.326473236084002,8.70821571350098,13.307226181030298,15.794094085693398,11.4818916320801,12.0378217697144,13.3508739471436,12.7497158050537,-19.4360046386719,-20.3079357147217,-12.7708806991577,-12.0447816848755,-16.3325595855713,-18.2230930328369,-7.279701232910159,-9.91089534759521,-15.415855407714798,0
138.54273816711463,122.58301925755276,151.3447571616796,131.9490974771754,135.58312597483064,126.52308904825108,202.859077199739,240.2123175102846,115.35344592254516,158.26556323811042,128.78827630781302,173.27684041276305,122.2234240503306,217.74671280623824,103.9153812772202,236.05255902979212,102.8632141109091,174.6573088421079,9.4713077545166,8.25040435791016,10.9452381134033,7.18656778335571,10.3165664672852,9.21652889251709,11.2194709777832,9.14566421508789,10.222785949707,-8.48243427276611,-10.7456197738647,-10.7395973205566,-5.38039636611938,-5.08543682098389,-4.96694231033325,-2.80293607711792,-8.57493495941162,-9.92464447021484,0
80.81058201819285,56.23863211439133,99.22599028572397,62.36809925576494,68.6320137344848,35.17243352386686,73.9078116707656,62.60338061311239,72.85620853731177,67.70255643420248,76.53659306432631,43.9799255877408,50.34312530587404,45.55492641192768,74.42430378687803,61.34441425219247,67.49619342109331,37.65907511325468,13.292367935180698,5.78699493408203,6.40645503997803,9.94515323638916,7.74763822555542,8.52719211578369,7.27829074859619,10.0273904800415,9.84739780426025,-15.632888793945302,-17.6700229644775,-14.9151372909546,-9.35665512084961,-8.99333763122559,-11.353684425354,-5.86646938323975,-7.04597949981689,-11.8035793304443,0
90.7702172356033,66.28672372960125,76.10687423267245,72.57934021807819,80.84792513020655,81.48898108613807,98.29766543019169,65.50955324058722,106.74764016254836,70.00608409142673,95.56147389652692,80.3669217935003,91.2456502024652,63.3291449997443,88.89076579762782,75.98886390508505,85.10169238646306,81.00197992528302,24.6922092437744,24.7927799224854,25.4618186950684,17.9710807800293,22.1845760345459,21.8736324310303,16.3705978393555,18.2613105773926,15.8344106674194,-54.86672210693361,-61.1855773925781,-64.1677551269531,-58.0453262329102,-68.1607360839844,-62.50758743286131,-57.7984237670898,-65.3972473144531,-64.3512878417969,1
228.8722759303876,120.64690485675392,233.6121625704277,152.85424475869837,145.87082323631526,96.07111777492676,142.8628590020273,95.92734067154896,103.34605402218745,92.30360361971626,149.87854273285703,138.08435664753182,178.90703155582753,159.70661165598568,123.29134418519266,180.26088050054756,71.32970372182211,154.64347515342783,9.91850185394287,10.1896362304688,10.7731046676636,7.70214509963989,7.933215141296389,11.3843288421631,5.71602582931519,9.3173360824585,11.0406160354614,-12.3324794769287,-11.4214286804199,-10.6411733627319,-7.455853939056399,-5.54025411605835,-11.3701677322388,-3.69885396957397,-2.06392097473145,-9.70819664001465,0
48.98476101035078,29.13029763295785,49.58125905632036,26.954799283658804,63.13202137377599,32.65123121316621,33.18930530545009,41.325162767639846,31.98981707695299,46.72870377605982,50.76550205457465,51.00079555279502,28.529915394867437,27.041469557740417,25.757634841604293,34.55049618405699,35.8100230995519,31.190616465859986,14.811606407165502,15.8943490982056,14.1081619262695,13.543924331665,11.5257482528687,12.4913291931152,14.8880376815796,13.780002593994102,8.96316528320312,-1.49475491046906,-2.41267871856689,-7.61069536209106,-9.38791275024414,-27.1530723571777,-11.0812301635742,-7.199619293212889,-13.0827445983887,-9.354905128479,1
27.48190225321662,21.02731967421243,32.84329105215685,27.311914673963887,24.97056766798759,26.62059580716762,21.07975246240468,19.08348992933182,27.60739473450139,37.05433909305204,27.87240657488565,38.26518352941128,22.097407087652584,15.629717281497555,22.96952778623779,20.90084765253342,27.324011133668908,27.84717373254068,18.3435497283936,26.401012420654304,30.286319732666005,13.9752988815308,17.5485095977783,17.0128021240234,14.570133209228498,18.6305637359619,17.8791446685791,-11.4356956481934,-10.2387218475342,-8.95714282989502,-8.83495903015137,-9.3846378326416,-12.2853565216064,-8.34833908081055,-5.65085172653198,-7.76785898208618,1
175.2158272485643,60.55422066645146,362.96207311472233,127.95593953117236,201.47886507949323,108.31520074677276,213.73468838336817,99.78069938743307,187.873743867414,81.525243616105,143.02230505326617,114.0568298962965,153.21940268947873,153.75405070886694,128.02700992706423,136.84434331940534,81.92500424716053,116.26357948206658,15.374427795410202,11.7382698059082,13.236400604248,9.16947937011719,13.8507270812988,15.418918609619102,9.19966506958008,14.197478294372598,17.9454669952393,-21.5450458526611,-24.0980358123779,-19.9521369934082,-15.6728029251099,-21.900333404541,-17.311674118042,-8.14316177368164,-7.7873911857605,-7.096349716186521,1
216.78535526490973,99.5001603038753,366.6524647224833,137.9260165493082,234.08618867578303,116.49784067874867,238.7977433014428,141.6266576901116,212.42407112859323,106.81300173206584,181.37635814512157,90.11451691509434,148.83806873397825,117.31678555772024,178.2488868150465,134.43615146992076,136.0419072104524,121.74788289831584,17.2648696899414,22.4069404602051,14.5195713043213,14.3118886947632,15.9445915222168,10.0437307357788,8.93129634857178,9.92345905303955,9.20136260986328,-4.65019512176514,-9.02708339691162,-16.4483814239502,-10.7179460525513,-12.3313751220703,-16.3672351837158,-11.1471576690674,-11.9855499267578,-15.700734138488802,0
151.88097523329668,85.04532765798601,130.69257859731766,94.40194562415972,77.08330362708705,91.98855907343764,148.75232330958423,123.3298284645156,119.08789805818556,91.91344059834374,88.09869769073232,91.26818275027055,111.84279225093728,121.9820067769162,105.64344725446657,105.36945496649534,79.17572709304694,83.50831408362404,22.7672348022461,24.858419418335,30.2362747192383,19.4649429321289,26.0783958435059,24.2432842254639,13.891037940979,20.5775871276855,21.2930603027344,-9.44735240936279,-5.56035566329956,-4.12053775787354,-9.35684204101562,-11.2896566390991,-14.239777565002402,-4.64736652374268,-6.5173544883728,-9.54043006896973,0
144.20142823577652,112.68444533089162,205.70349457799307,142.89522949527978,176.3995662733352,153.30584515581052,162.53582654687116,176.96600581828167,155.3154902182674,158.1611057775198,162.66899871398832,190.11029585011863,130.1310379365444,114.80625003067038,153.26376862929317,145.04416500639346,171.0578889156987,163.12027720699626,5.37446212768555,5.44610214233398,9.44977378845215,6.917496681213381,7.34341526031494,8.20865726470947,11.8210916519165,14.0185356140137,14.482302665710398,-14.889122009277298,-13.5700645446777,-7.917442321777341,-9.69707679748535,-12.7334175109863,-12.6128711700439,-12.818867683410598,-18.1323890686035,-17.8173294067383,1
222.8075828459928,66.60189330022328,334.59285584679856,91.83704245424444,188.9042834444438,105.36451799362044,193.23087902894164,133.02651052025945,157.37419060799806,168.34462501487698,141.66966803629805,128.567510196028,145.8025105603611,128.74891926268893,114.59527967620026,215.22899489395323,112.68367180264298,150.60323659511522,15.1187267303467,12.3081512451172,12.0291919708252,13.8851165771484,13.409143447876,11.8265962600708,8.16336154937744,8.84999752044678,7.34769821166992,-20.1394500732422,-22.1729106903076,-19.1397647857666,-13.151479721069302,-7.69857501983643,-6.84054851531982,-7.26079940795898,-3.9342555999755904,-5.93031978607178,0
183.31213095658325,91.5248015650267,228.11224669907617,89.64830656227068,121.12164616524576,74.51169939808375,137.42568312683463,108.93542957493123,178.34725971768026,165.34599809347452,100.46006314932502,104.9540966979991,89.03469933372631,84.11835081670313,118.2060161901382,149.19568959910947,95.27113146249292,152.40248912338802,15.385814666748,4.49602508544922,5.89096450805664,18.2638282775879,18.8401584625244,11.8850526809692,16.2207736968994,21.2807693481445,16.4565734863281,-17.8552207946777,-18.5371322631836,-12.5301113128662,-18.4074420928955,-20.723482131958,-16.7087574005127,-12.3225870132446,-13.8796806335449,-14.869763374328604,0
222.13471312880432,121.68442502113083,249.75884674180412,114.69617160382651,178.61612950668933,115.07963488605914,216.30613458144444,103.56546160566488,173.49915034932422,129.98335162597178,147.09390060570385,103.0884760572303,190.51946151120555,85.99104961016101,170.1826639305845,111.8645975985268,152.4112303615948,110.05556658551734,9.12818336486816,7.510091781616209,5.47693157196045,15.763402938842798,11.9451770782471,9.74383354187012,17.6041679382324,21.6529674530029,19.4121608734131,-9.41193389892578,-19.981538772583,-16.3896560668945,-8.43783760070801,-13.322555541992198,-9.6374626159668,-8.30484199523926,-11.1900663375854,-10.2738399505615,0
68.17303627539414,23.213655683171744,85.59763940915178,24.69238894433662,63.03933502137137,30.769625204257903,68.14145253562043,35.10790479469743,61.07491044000085,34.13908525581518,54.33912302156757,33.94932242239893,104.80550280388496,69.60159984693905,72.3208573725736,52.12593150234524,58.33034902435251,44.22399600092247,8.22336769104004,10.1529769897461,8.32280540466309,9.77374076843262,14.476957321166998,11.1817378997803,8.19027805328369,17.1054039001465,15.629284858703604,-21.476053237915,-23.5125961303711,-14.5229187011719,-6.58441734313965,-5.6318244934082,-8.98777961730957,-7.63599109649658,-8.7016019821167,-11.3850994110107,0
141.62991669495696,87.16361492515985,237.07214199624852,157.0918251236158,180.6279381884669,120.3326582642638,170.0337685435371,162.09732640431162,173.02391756499523,176.43686418620143,89.11847096472113,85.77873599061083,101.35984729997928,135.4656368964236,116.27660453342702,184.60943332863707,85.36818641946003,115.45470449101342,17.8654670715332,16.4633827209473,17.2847213745117,20.1680946350098,19.5814609527588,13.1825828552246,13.9008197784424,18.2107429504395,20.1114273071289,-39.1174774169922,-31.1701107025146,-14.1396827697754,-23.6483726501465,-10.4118719100952,-2.22056865692139,-13.6039333343506,-10.8886404037476,-8.7871265411377,0
97.67088051095924,48.14886256289376,106.68836240869382,59.253785496176405,71.87170942460139,50.531975274692655,62.78068523904148,38.67750104003113,110.91286160263265,57.18197188739821,87.68424745771068,55.447082145229146,42.23162535067136,45.51547043149672,71.83335814755215,56.553970283633895,99.91267628642444,78.5598389246993,26.7408847808838,16.8583202362061,12.7357196807861,25.8098201751709,22.1855449676514,17.717866897583,22.4338493347168,26.1869888305664,14.879066467285202,-34.529914855957,-36.6165771484375,-22.6314964294434,-18.0010471343994,-18.5990619659424,-10.6494455337524,-12.9145908355713,-14.048179626464798,-8.51179695129395,1
118.6660784465408,97.30923310223352,194.974062066605,98.00681737382432,116.0004614908561,81.4476202152102,136.3427994294764,132.20728234404257,77.91164373175343,83.25703928298212,68.30335465633186,78.19702791571923,101.49871794429558,99.68854557247955,75.87424757431634,112.93171145822708,57.79962889168611,94.56866058036684,22.714506149292,18.8497638702393,19.41015625,24.4611473083496,28.629831314086903,23.9379348754883,21.1778812408447,28.7781028747559,25.745391845703104,-20.7269134521484,-32.5819702148438,-31.3263893127441,-13.371973037719702,-19.9744663238525,-23.911304473877,-6.37819957733154,-10.6298961639404,-15.7961664199829,1
93.85974782932082,89.85784360664954,135.50862137327377,111.31816370984424,125.63812698682788,85.15473368797953,109.88094012349724,114.62524280251476,93.0339577450904,104.3273555497014,85.5609871774243,90.50940052019573,100.051637216077,132.0500204863851,67.99665741880754,121.6064708258494,52.90361060324836,91.58340955668103,17.5927906036377,18.8715171813965,14.870491027832,17.5648040771484,16.362232208252,15.3119888305664,17.6239795684814,17.1543712615967,12.0979871749878,-25.732170104980504,-35.0837516784668,-39.9355621337891,-15.2424421310425,-18.9972038269043,-29.807296752929695,-12.2169466018677,-17.5515823364258,-22.3163948059082,0
548.0251372414345,166.45974570265994,568.9831727524888,171.4289763157482,454.524921527426,189.7852737209652,681.4329444025913,282.8157480174801,501.4832804326043,249.00137457223664,260.0469711594332,125.3428125086406,579.2122326948388,258.7305636499682,335.1891989242968,125.85459441046156,201.53512546320803,93.66655399222006,15.856416702270502,28.215858459472702,22.3420028686523,16.1622848510742,17.9318790435791,13.6565837860107,22.7464752197266,25.9595222473145,18.3462619781494,-15.7259368896484,-14.370407104492198,-19.5543556213379,-10.8793201446533,-15.953742980957,-14.989341735839798,-7.8111515045166,-13.7746095657349,-14.2617168426514,1
